Bruker Nano GmbH Berlin, Germany
Esprit 1.9

Date: 11/30/2016 12:04:37 PM
Real time: 10716
Life time: 10033
Pulse density: 1617

Primary energy: 80
Take off angle: 18
Tilt angle: 0
Azimut angle: 45

Detector type: SuperX
Window type: no window
Detector thickness: 0.45
Si dead layer:0.08

Calibration, lin.: 10.001
Calibration, abs.: -469.147
Mn FWHM: 130.817
Fano factor: 0.113
Channels: 2038

Energy Counts
-0.4691    0
-0.4591    0
-0.4491    0
-0.4391    0
-0.4291    0
-0.4191    0
-0.4091    0
-0.3991    0
-0.3891    0
-0.3791    0
-0.3691    0
-0.3591    0
-0.3491    0
-0.3391    0
-0.3291    0
-0.3191    0
-0.3091    0
-0.2991    0
-0.2891    0
-0.2791    0
-0.2691    0
-0.2591    0
-0.2491    0
-0.2391    0
-0.2291    0
-0.2191    0
-0.2091    0
-0.1991    0
-0.1891    0
-0.1791    0
-0.1691    0
-0.1591    0
-0.1491    0
-0.1391    0
-0.1291    0
-0.1191    0
-0.1091    0
-0.0991    0
-0.0891    0
-0.0791    2
-0.0691    7
-0.0591   18
-0.0491   80
-0.0391  174
-0.0291  453
-0.0191  792
-0.0091 1132
 0.0009 1431
 0.0109 1417
 0.0209 1158
 0.0309  739
 0.0409  446
 0.0509  153
 0.0609   71
 0.0709   13
 0.0809    4
 0.0909    3
 0.1009    0
 0.1109    0
 0.1209    0
 0.1309   29
 0.1409   27
 0.1509   26
 0.1609   22
 0.1709   30
 0.1809   31
 0.1909   29
 0.2009   51
 0.2109   89
 0.2209  125
 0.2309  204
 0.2409  367
 0.2509  478
 0.2609  619
 0.2709  677
 0.2809  732
 0.2909  586
 0.3009  423
 0.3109  298
 0.3209  163
 0.3309   96
 0.3409   45
 0.3509   35
 0.3609   47
 0.3709   59
 0.3809   70
 0.3909   60
 0.4009   61
 0.4109   58
 0.4209   53
 0.4309   41
 0.4409   27
 0.4509   31
 0.4609   43
 0.4709   64
 0.4809  110
 0.4909  146
  0.501  220
  0.511  228
  0.521  305
  0.531  260
  0.541  273
  0.551  222
  0.561  154
  0.571   99
  0.581   55
  0.591   39
  0.601   19
  0.611   12
  0.621   18
  0.631   11
  0.641   12
  0.651    4
  0.661   15
  0.671    6
  0.681   12
  0.691   13
  0.701   10
  0.711   15
  0.721   18
  0.731   16
  0.741    8
  0.751    7
  0.761   10
  0.771   13
  0.781   14
  0.791   12
  0.801   12
  0.811    6
  0.821    9
  0.831    9
  0.841   14
  0.851    7
  0.861   11
  0.871   14
  0.881    7
  0.891   10
  0.901   12
  0.911   15
  0.921    8
  0.931   14
  0.941   10
  0.951   12
  0.961   11
  0.971   12
  0.981   15
  0.991   20
  1.001   23
  1.011   29
  1.021   44
  1.031   34
  1.041   56
  1.051   56
  1.061   55
  1.071   51
  1.081   56
  1.091   39
  1.101   52
  1.111   58
  1.121   33
  1.131   32
  1.141   29
  1.151   22
  1.161   18
  1.171   13
  1.181   20
  1.191   17
  1.201   13
  1.211   11
  1.221   10
  1.231   12
  1.241   18
  1.251   24
  1.261   22
  1.271   17
  1.281   29
  1.291   18
  1.301   17
  1.311   10
  1.321    9
  1.331   11
  1.341    1
  1.351    9
  1.361    9
  1.371    9
  1.381    8
  1.391    3
  1.401    5
  1.411   11
  1.421    4
  1.431    7
  1.441   16
  1.451    4
  1.461    6
  1.471   11
  1.481   10
  1.491    6
 1.5011    5
 1.5111   13
 1.5211   12
 1.5311    4
 1.5411    4
 1.5511    8
 1.5611    6
 1.5711    4
 1.5811   15
 1.5911   14
 1.6011    3
 1.6111   16
 1.6211    7
 1.6311    9
 1.6411   12
 1.6511   16
 1.6611   25
 1.6711   21
 1.6811   44
 1.6911   67
 1.7011   83
 1.7111  119
 1.7211  145
 1.7311  191
 1.7411  203
 1.7511  185
 1.7611  201
 1.7711  140
 1.7811  146
 1.7911   94
 1.8011   76
 1.8111   43
 1.8211   31
 1.8311   22
 1.8411   23
 1.8511   11
 1.8611   12
 1.8711    9
 1.8811    8
 1.8911    7
 1.9011    9
 1.9111    9
 1.9211    3
 1.9311    6
 1.9411    5
 1.9511    6
 1.9611    5
 1.9711    4
 1.9811    6
 1.9911    8
 2.0011    9
 2.0111   15
 2.0211   10
 2.0311   12
 2.0411   18
 2.0511   13
 2.0611   19
 2.0711   20
 2.0811   24
 2.0911   22
 2.1011   12
 2.1111   13
 2.1211   10
 2.1311    9
 2.1411   14
 2.1511    8
 2.1611    8
 2.1711    8
 2.1811    9
 2.1911   14
 2.2011   22
 2.2111   15
 2.2211   26
 2.2311   30
 2.2411   32
 2.2511   58
 2.2611   68
 2.2711   83
 2.2811  111
 2.2911  140
 2.3011  195
 2.3111  217
 2.3211  214
 2.3311  178
 2.3411  153
 2.3511  128
 2.3611   93
 2.3711   55
 2.3811   58
 2.3911   46
 2.4011   28
 2.4111   14
 2.4211    7
 2.4311   11
 2.4411   20
 2.4511   12
 2.4611   23
 2.4711   16
 2.4811   12
 2.4911   19
 2.5012    8
 2.5112    9
 2.5212    5
 2.5312   11
 2.5412    4
 2.5512   10
 2.5612   10
 2.5712    3
 2.5812    4
 2.5912   12
 2.6012   11
 2.6112   11
 2.6212   10
 2.6312    7
 2.6412    9
 2.6512    5
 2.6612    9
 2.6712    6
 2.6812    7
 2.6912    3
 2.7012    3
 2.7112    0
 2.7212    2
 2.7312    3
 2.7412    3
 2.7512    1
 2.7612    5
 2.7712    4
 2.7812    3
 2.7912    0
 2.8012    2
 2.8112    3
 2.8212    5
 2.8312    4
 2.8412    3
 2.8512    0
 2.8612    4
 2.8712    3
 2.8812    3
 2.8912    1
 2.9012    7
 2.9112    2
 2.9212    5
 2.9312    1
 2.9412    3
 2.9512    1
 2.9612    4
 2.9712    3
 2.9812    4
 2.9912    1
 3.0012    1
 3.0112    3
 3.0212    2
 3.0312    3
 3.0412    4
 3.0512    5
 3.0612    2
 3.0712    0
 3.0812    1
 3.0912    0
 3.1012    4
 3.1112    2
 3.1212    3
 3.1312    2
 3.1412    2
 3.1512    2
 3.1612    3
 3.1712    0
 3.1812    3
 3.1912    3
 3.2012    3
 3.2112    4
 3.2212    1
 3.2312    5
 3.2412    2
 3.2512    4
 3.2612    6
 3.2712    8
 3.2812    2
 3.2912    3
 3.3012    4
 3.3112    4
 3.3212    2
 3.3312    7
 3.3412    1
 3.3512    8
 3.3612    4
 3.3712    4
 3.3812    2
 3.3912    1
 3.4012    2
 3.4112    4
 3.4212    1
 3.4312    5
 3.4412    4
 3.4512    2
 3.4612    1
 3.4712    6
 3.4812    2
 3.4912    3
 3.5013    2
 3.5113    2
 3.5213    2
 3.5313    3
 3.5413    5
 3.5513    3
 3.5613    1
 3.5713    3
 3.5813    5
 3.5913    2
 3.6013    3
 3.6113    1
 3.6213    4
 3.6313    1
 3.6413    6
 3.6513    3
 3.6613    1
 3.6713    7
 3.6813    2
 3.6913    8
 3.7013    4
 3.7113    2
 3.7213    3
 3.7313    1
 3.7413    3
 3.7513    4
 3.7613    1
 3.7713    6
 3.7813    7
 3.7913    0
 3.8013    2
 3.8113    2
 3.8213    0
 3.8313    1
 3.8413    2
 3.8513    0
 3.8613    2
 3.8713    2
 3.8813    1
 3.8913    1
 3.9013    4
 3.9113    2
 3.9213    3
 3.9313    3
 3.9413    5
 3.9513    0
 3.9613    2
 3.9713    3
 3.9813    5
 3.9913    1
 4.0013    6
 4.0113    2
 4.0213    1
 4.0313    1
 4.0413    5
 4.0513    0
 4.0613    1
 4.0713    4
 4.0813    3
 4.0913    3
 4.1013    4
 4.1113    1
 4.1213    2
 4.1313    3
 4.1413    3
 4.1513    2
 4.1613    3
 4.1713    3
 4.1813    3
 4.1913    2
 4.2013    6
 4.2113    3
 4.2213    2
 4.2313    1
 4.2413    0
 4.2513    1
 4.2613    1
 4.2713    2
 4.2813    0
 4.2913    3
 4.3013    2
 4.3113    1
 4.3213    3
 4.3313    3
 4.3413    1
 4.3513    1
 4.3613    1
 4.3713    2
 4.3813    0
 4.3913    0
 4.4013    4
 4.4113    3
 4.4213    3
 4.4313    0
 4.4413    3
 4.4513    1
 4.4613    1
 4.4713    5
 4.4813    5
 4.4913    0
 4.5014    2
 4.5114    1
 4.5214    5
 4.5314    2
 4.5414    2
 4.5514    1
 4.5614    0
 4.5714    1
 4.5814    3
 4.5914    2
 4.6014    1
 4.6114    0
 4.6214    4
 4.6314    0
 4.6414    1
 4.6514    1
 4.6614    0
 4.6714    3
 4.6814    2
 4.6914    3
 4.7014    1
 4.7114    2
 4.7214    0
 4.7314    0
 4.7414    2
 4.7514    1
 4.7614    0
 4.7714    0
 4.7814    1
 4.7914    2
 4.8014    3
 4.8114    2
 4.8214    2
 4.8314    3
 4.8414    0
 4.8514    2
 4.8614    3
 4.8714    0
 4.8814    3
 4.8914    0
 4.9014    5
 4.9114    2
 4.9214    1
 4.9314    0
 4.9414    1
 4.9514    2
 4.9614    1
 4.9714    0
 4.9814    1
 4.9914    1
 5.0014    3
 5.0114    1
 5.0214    1
 5.0314    3
 5.0414    1
 5.0514    2
 5.0614    4
 5.0714    1
 5.0814    2
 5.0914    3
 5.1014    2
 5.1114    1
 5.1214    0
 5.1314    2
 5.1414    4
 5.1514    1
 5.1614    1
 5.1714    0
 5.1814    0
 5.1914    1
 5.2014    1
 5.2114    0
 5.2214    2
 5.2314    0
 5.2414    2
 5.2514    0
 5.2614    2
 5.2714    1
 5.2814    0
 5.2914    0
 5.3014    2
 5.3114    2
 5.3214    0
 5.3314    1
 5.3414    5
 5.3514    1
 5.3614    2
 5.3714    1
 5.3814    2
 5.3914    1
 5.4014    0
 5.4114    1
 5.4214    2
 5.4314    1
 5.4414    3
 5.4514    1
 5.4614    2
 5.4714    1
 5.4814    5
 5.4914    1
 5.5015    1
 5.5115    2
 5.5215    0
 5.5315    1
 5.5415    1
 5.5515    2
 5.5615    2
 5.5715    3
 5.5815    2
 5.5915    0
 5.6015    3
 5.6115    2
 5.6215    1
 5.6315    1
 5.6415    4
 5.6515    1
 5.6615    2
 5.6715    1
 5.6815    2
 5.6915    1
 5.7015    0
 5.7115    1
 5.7215    3
 5.7315    1
 5.7415    2
 5.7515    0
 5.7615    3
 5.7715    0
 5.7815    2
 5.7915    1
 5.8015    2
 5.8115    1
 5.8215    0
 5.8315    0
 5.8415    1
 5.8515    0
 5.8615    0
 5.8715    0
 5.8815    3
 5.8915    2
 5.9015    2
 5.9115    3
 5.9215    4
 5.9315    0
 5.9415    6
 5.9515    1
 5.9615    2
 5.9715    5
 5.9815    1
 5.9915    1
 6.0015    2
 6.0115    1
 6.0215    2
 6.0315    2
 6.0415    2
 6.0515    0
 6.0615    6
 6.0715    0
 6.0815    0
 6.0915    2
 6.1015    2
 6.1115    5
 6.1215    3
 6.1315    2
 6.1415    0
 6.1515    1
 6.1615    4
 6.1715    4
 6.1815    1
 6.1915    0
 6.2015    3
 6.2115    0
 6.2215    0
 6.2315    0
 6.2415    2
 6.2515    1
 6.2615    3
 6.2715    3
 6.2815    2
 6.2915    3
 6.3015    2
 6.3115    4
 6.3215    2
 6.3315    2
 6.3415   10
 6.3515    3
 6.3615    1
 6.3715    2
 6.3815   10
 6.3915   10
 6.4015   11
 6.4115    3
 6.4215    9
 6.4315    6
 6.4415    5
 6.4515    2
 6.4615    4
 6.4715    2
 6.4815    5
 6.4915    6
 6.5016    3
 6.5116    2
 6.5216    1
 6.5316    3
 6.5416    0
 6.5516    2
 6.5616    1
 6.5716    1
 6.5816    1
 6.5916    0
 6.6016    2
 6.6116    0
 6.6216    2
 6.6316    1
 6.6416    1
 6.6516    0
 6.6616    0
 6.6716    0
 6.6816    5
 6.6916    1
 6.7016    3
 6.7116    1
 6.7216    2
 6.7316    1
 6.7416    0
 6.7516    1
 6.7616    1
 6.7716    0
 6.7816    2
 6.7916    1
 6.8016    1
 6.8116    2
 6.8216    2
 6.8316    0
 6.8416    1
 6.8516    0
 6.8616    1
 6.8716    2
 6.8816    3
 6.8916    2
 6.9016    1
 6.9116    5
 6.9216    1
 6.9316    1
 6.9416    1
 6.9516    2
 6.9616    2
 6.9716    0
 6.9816    0
 6.9916    2
 7.0016    4
 7.0116    2
 7.0216    3
 7.0316    0
 7.0416    1
 7.0516    3
 7.0616    3
 7.0716    2
 7.0816    2
 7.0916    1
 7.1016    3
 7.1116    1
 7.1216    3
 7.1316    0
 7.1416    0
 7.1516    1
 7.1616    3
 7.1716    5
 7.1816    2
 7.1916    3
 7.2016    2
 7.2116    3
 7.2216    0
 7.2316    1
 7.2416    2
 7.2516    0
 7.2616    3
 7.2716    3
 7.2816    0
 7.2916    2
 7.3016    1
 7.3116    1
 7.3216    1
 7.3316    0
 7.3416    0
 7.3516    1
 7.3616    1
 7.3716    1
 7.3816    4
 7.3916    1
 7.4016    0
 7.4116    2
 7.4216    2
 7.4316    2
 7.4416    5
 7.4516    0
 7.4616    4
 7.4716    1
 7.4816    1
 7.4916    1
 7.5017    2
 7.5117    5
 7.5217    2
 7.5317    2
 7.5417    3
 7.5517    4
 7.5617    3
 7.5717    3
 7.5817    1
 7.5917    1
 7.6017    1
 7.6117    2
 7.6217    2
 7.6317    0
 7.6417    1
 7.6517    0
 7.6617    1
 7.6717    0
 7.6817    1
 7.6917    0
 7.7017    0
 7.7117    0
 7.7217    1
 7.7317    1
 7.7417    2
 7.7517    1
 7.7617    0
 7.7717    3
 7.7817    2
 7.7917    1
 7.8017    2
 7.8117    0
 7.8217    2
 7.8317    5
 7.8417    1
 7.8517    2
 7.8617    1
 7.8717    0
 7.8817    1
 7.8917    2
 7.9017    3
 7.9117    2
 7.9217    1
 7.9317    5
 7.9417    3
 7.9517    2
 7.9617    3
 7.9717    1
 7.9817    4
 7.9917    2
 8.0017    4
 8.0117    2
 8.0217    7
 8.0317    4
 8.0417    5
 8.0517    7
 8.0617    1
 8.0717    3
 8.0817    3
 8.0917    2
 8.1017    2
 8.1117    2
 8.1217    3
 8.1317    2
 8.1417    1
 8.1517    0
 8.1617    0
 8.1717    0
 8.1817    1
 8.1917    4
 8.2017    2
 8.2117    1
 8.2217    2
 8.2317    2
 8.2417    1
 8.2517    0
 8.2617    2
 8.2717    3
 8.2817    1
 8.2917    0
 8.3017    1
 8.3117    1
 8.3217    0
 8.3317    0
 8.3417    1
 8.3517    4
 8.3617    0
 8.3717    1
 8.3817    2
 8.3917    0
 8.4017    2
 8.4117    1
 8.4217    1
 8.4317    1
 8.4417    0
 8.4517    0
 8.4617    0
 8.4717    0
 8.4817    2
 8.4917    0
 8.5018    1
 8.5118    1
 8.5218    0
 8.5318    0
 8.5418    1
 8.5518    2
 8.5618    1
 8.5718    1
 8.5818    1
 8.5918    0
 8.6018    2
 8.6118    1
 8.6218    0
 8.6318    1
 8.6418    1
 8.6518    3
 8.6618    1
 8.6718    0
 8.6818    1
 8.6918    0
 8.7018    2
 8.7118    1
 8.7218    0
 8.7318    2
 8.7418    0
 8.7518    0
 8.7618    1
 8.7718    0
 8.7818    0
 8.7918    1
 8.8018    1
 8.8118    5
 8.8218    1
 8.8318    3
 8.8418    1
 8.8518    2
 8.8618    4
 8.8718    1
 8.8818    0
 8.8918    0
 8.9018    3
 8.9118    1
 8.9218    2
 8.9318    3
 8.9418    0
 8.9518    1
 8.9618    2
 8.9718    1
 8.9818    0
 8.9918    0
 9.0018    1
 9.0118    2
 9.0218    4
 9.0318    1
 9.0418    3
 9.0518    2
 9.0618    0
 9.0718    3
 9.0818    2
 9.0918    1
 9.1018    0
 9.1118    2
 9.1218    7
 9.1318    3
 9.1418    5
 9.1518    7
 9.1618   13
 9.1718    6
 9.1818   13
 9.1918   13
 9.2018   17
 9.2118   15
 9.2218   13
 9.2318   15
 9.2418    9
 9.2518   14
 9.2618    9
 9.2718   14
 9.2818   11
 9.2918   14
 9.3018   10
 9.3118    7
 9.3218    7
 9.3318    4
 9.3418    8
 9.3518    5
 9.3618    4
 9.3718    8
 9.3818    3
 9.3918    6
 9.4018    4
 9.4118    6
 9.4218   10
 9.4318    6
 9.4418    6
 9.4518    3
 9.4618    3
 9.4718    8
 9.4818    1
 9.4918    4
 9.5019    1
 9.5119    4
 9.5219    3
 9.5319    0
 9.5419    1
 9.5519    1
 9.5619    1
 9.5719    1
 9.5819    1
 9.5919    1
 9.6019    2
 9.6119    1
 9.6219    1
 9.6319    3
 9.6419    0
 9.6519    2
 9.6619    2
 9.6719    0
 9.6819    0
 9.6919    2
 9.7019    2
 9.7119    1
 9.7219    2
 9.7319    2
 9.7419    1
 9.7519    1
 9.7619    2
 9.7719    1
 9.7819    1
 9.7919    0
 9.8019    2
 9.8119    1
 9.8219    0
 9.8319    1
 9.8419    0
 9.8519    0
 9.8619    0
 9.8719    0
 9.8819    2
 9.8919    0
 9.9019    0
 9.9119    2
 9.9219    0
 9.9319    1
 9.9419    1
 9.9519    0
 9.9619    0
 9.9719    2
 9.9819    1
 9.9919    2
10.0019    3
10.0119    1
10.0219    2
10.0319    0
10.0419    0
10.0519    3
10.0619    0
10.0719    1
10.0819    1
10.0919    2
10.1019    0
10.1119    0
10.1219    1
10.1319    1
10.1419    1
10.1519    3
10.1619    1
10.1719    0
10.1819    3
10.1919    3
10.2019    1
10.2119    2
10.2219    1
10.2319    1
10.2419    4
10.2519    0
10.2619    1
10.2719    2
10.2819    2
10.2919    1
10.3019    3
10.3119    3
10.3219    2
10.3319    3
10.3419    1
10.3519    1
10.3619    1
10.3719    3
10.3819    2
10.3919    0
10.4019    1
10.4119    0
10.4219    1
10.4319    1
10.4419    4
10.4519    1
10.4619    0
10.4719    2
10.4819    0
10.4919    0
 10.502    0
 10.512    0
 10.522    2
 10.532    0
 10.542    0
 10.552    1
 10.562    1
 10.572    0
 10.582    2
 10.592    2
 10.602    1
 10.612    1
 10.622    0
 10.632    0
 10.642    0
 10.652    1
 10.662    0
 10.672    1
 10.682    1
 10.692    0
 10.702    2
 10.712    0
 10.722    2
 10.732    2
 10.742    0
 10.752    2
 10.762    0
 10.772    0
 10.782    1
 10.792    0
 10.802    2
 10.812    2
 10.822    4
 10.832    0
 10.842    1
 10.852    1
 10.862    1
 10.872    1
 10.882    0
 10.892    2
 10.902    0
 10.912    0
 10.922    1
 10.932    0
 10.942    3
 10.952    2
 10.962    0
 10.972    1
 10.982    1
 10.992    1
 11.002    2
 11.012    0
 11.022    1
 11.032    1
 11.042    3
 11.052    1
 11.062    1
 11.072    0
 11.082    1
 11.092    2
 11.102    4
 11.112    1
 11.122    1
 11.132    2
 11.142    1
 11.152    0
 11.162    1
 11.172    0
 11.182    2
 11.192    0
 11.202    1
 11.212    3
 11.222    0
 11.232    1
 11.242    2
 11.252    1
 11.262    0
 11.272    1
 11.282    0
 11.292    0
 11.302    0
 11.312    0
 11.322    1
 11.332    1
 11.342    1
 11.352    2
 11.362    1
 11.372    0
 11.382    0
 11.392    1
 11.402    0
 11.412    2
 11.422    2
 11.432    2
 11.442    0
 11.452    0
 11.462    1
 11.472    0
 11.482    0
 11.492    1
11.5021    1
11.5121    2
11.5221    0
11.5321    0
11.5421    3
11.5521    1
11.5621    0
11.5721    0
11.5821    1
11.5921    0
11.6021    1
11.6121    1
11.6221    0
11.6321    1
11.6421    2
11.6521    0
11.6621    0
11.6721    0
11.6821    0
11.6921    2
11.7021    0
11.7121    1
11.7221    0
11.7321    1
11.7421    1
11.7521    0
11.7621    0
11.7721    0
11.7821    1
11.7921    1
11.8021    0
11.8121    0
11.8221    0
11.8321    0
11.8421    0
11.8521    0
11.8621    0
11.8721    0
11.8821    0
11.8921    0
11.9021    1
11.9121    0
11.9221    0
11.9321    0
11.9421    0
11.9521    0
11.9621    1
11.9721    0
11.9821    0
11.9921    0
12.0021    1
12.0121    0
12.0221    2
12.0321    4
12.0421    0
12.0521    0
12.0621    1
12.0721    0
12.0821    1
12.0921    0
12.1021    0
12.1121    0
12.1221    0
12.1321    1
12.1421    1
12.1521    2
12.1621    1
12.1721    1
12.1821    0
12.1921    0
12.2021    0
12.2121    0
12.2221    0
12.2321    0
12.2421    2
12.2521    0
12.2621    0
12.2721    1
12.2821    1
12.2921    1
12.3021    1
12.3121    0
12.3221    1
12.3321    0
12.3421    0
12.3521    0
12.3621    0
12.3721    2
12.3821    0
12.3921    0
12.4021    0
12.4121    1
12.4221    0
12.4321    0
12.4421    0
12.4521    1
12.4621    2
12.4721    0
12.4821    1
12.4921    1
12.5022    2
12.5122    3
12.5222    1
12.5322    1
12.5422    0
12.5522    0
12.5622    0
12.5722    1
12.5822    1
12.5922    1
12.6022    0
12.6122    0
12.6222    1
12.6322    2
12.6422    2
12.6522    0
12.6622    1
12.6722    0
12.6822    2
12.6922    0
12.7022    1
12.7122    1
12.7222    1
12.7322    2
12.7422    0
12.7522    0
12.7622    0
12.7722    2
12.7822    0
12.7922    1
12.8022    0
12.8122    1
12.8222    1
12.8322    0
12.8422    0
12.8522    0
12.8622    0
12.8722    0
12.8822    1
12.8922    0
12.9022    2
12.9122    2
12.9222    2
12.9322    2
12.9422    2
12.9522    2
12.9622    2
12.9722    1
12.9822    1
12.9922    0
13.0022    0
13.0122    1
13.0222    1
13.0322    2
13.0422    0
13.0522    1
13.0622    0
13.0722    1
13.0822    1
13.0922    1
13.1022    1
13.1122    0
13.1222    1
13.1322    1
13.1422    1
13.1522    0
13.1622    0
13.1722    0
13.1822    1
13.1922    2
13.2022    1
13.2122    0
13.2222    0
13.2322    0
13.2422    0
13.2522    1
13.2622    0
13.2722    1
13.2822    0
13.2922    1
13.3022    0
13.3122    0
13.3222    0
13.3322    0
13.3422    0
13.3522    0
13.3622    1
13.3722    0
13.3822    3
13.3922    1
13.4022    1
13.4122    0
13.4222    1
13.4322    1
13.4422    0
13.4522    0
13.4622    0
13.4722    0
13.4822    2
13.4922    0
13.5023    0
13.5123    0
13.5223    1
13.5323    0
13.5423    0
13.5523    1
13.5623    0
13.5723    2
13.5823    0
13.5923    1
13.6023    0
13.6123    1
13.6223    1
13.6323    1
13.6423    0
13.6523    2
13.6623    1
13.6723    1
13.6823    1
13.6923    1
13.7023    1
13.7123    1
13.7223    1
13.7323    2
13.7423    1
13.7523    1
13.7623    0
13.7723    1
13.7823    0
13.7923    0
13.8023    0
13.8123    0
13.8223    0
13.8323    1
13.8423    0
13.8523    0
13.8623    1
13.8723    2
13.8823    1
13.8923    0
13.9023    1
13.9123    0
13.9223    0
13.9323    0
13.9423    0
13.9523    0
13.9623    0
13.9723    2
13.9823    0
13.9923    0
14.0023    0
14.0123    1
14.0223    0
14.0323    1
14.0423    0
14.0523    0
14.0623    0
14.0723    1
14.0823    0
14.0923    2
14.1023    0
14.1123    2
14.1223    2
14.1323    0
14.1423    1
14.1523    2
14.1623    0
14.1723    0
14.1823    3
14.1923    1
14.2023    1
14.2123    0
14.2223    0
14.2323    1
14.2423    1
14.2523    2
14.2623    1
14.2723    0
14.2823    0
14.2923    1
14.3023    0
14.3123    1
14.3223    1
14.3323    0
14.3423    1
14.3523    0
14.3623    0
14.3723    1
14.3823    0
14.3923    0
14.4023    2
14.4123    0
14.4223    0
14.4323    1
14.4423    1
14.4523    0
14.4623    0
14.4723    0
14.4823    1
14.4923    0
14.5024    1
14.5124    0
14.5224    0
14.5324    0
14.5424    0
14.5524    0
14.5624    0
14.5724    0
14.5824    0
14.5924    1
14.6024    0
14.6124    1
14.6224    0
14.6324    1
14.6424    2
14.6524    0
14.6624    0
14.6724    0
14.6824    0
14.6924    2
14.7024    0
14.7124    1
14.7224    1
14.7324    0
14.7424    0
14.7524    0
14.7624    0
14.7724    0
14.7824    0
14.7924    0
14.8024    1
14.8124    1
14.8224    0
14.8324    1
14.8424    0
14.8524    0
14.8624    1
14.8724    0
14.8824    0
14.8924    0
14.9024    0
14.9124    0
14.9224    0
14.9324    1
14.9424    0
14.9524    1
14.9624    0
14.9724    0
14.9824    0
14.9924    1
15.0024    0
15.0124    0
15.0224    0
15.0324    0
15.0424    0
15.0524    0
15.0624    0
15.0724    1
15.0824    0
15.0924    0
15.1024    3
15.1124    1
15.1224    1
15.1324    1
15.1424    1
15.1524    0
15.1624    0
15.1724    0
15.1824    0
15.1924    1
15.2024    0
15.2124    1
15.2224    0
15.2324    0
15.2424    0
15.2524    0
15.2624    0
15.2724    0
15.2824    1
15.2924    0
15.3024    0
15.3124    0
15.3224    0
15.3324    1
15.3424    1
15.3524    1
15.3624    0
15.3724    0
15.3824    0
15.3924    0
15.4024    1
15.4124    0
15.4224    0
15.4324    0
15.4424    0
15.4524    1
15.4624    1
15.4724    0
15.4824    0
15.4924    1
15.5025    1
15.5125    0
15.5225    1
15.5325    0
15.5425    0
15.5525    1
15.5625    0
15.5725    0
15.5825    0
15.5925    1
15.6025    0
15.6125    0
15.6225    0
15.6325    0
15.6425    0
15.6525    0
15.6625    0
15.6725    0
15.6825    0
15.6925    0
15.7025    1
15.7125    0
15.7225    1
15.7325    2
15.7425    0
15.7525    0
15.7625    0
15.7725    1
15.7825    0
15.7925    1
15.8025    0
15.8125    1
15.8225    0
15.8325    0
15.8425    1
15.8525    0
15.8625    0
15.8725    0
15.8825    0
15.8925    0
15.9025    0
15.9125    1
15.9225    0
15.9325    1
15.9425    0
15.9525    0
15.9625    0
15.9725    1
15.9825    1
15.9925    0
16.0025    0
16.0125    0
16.0225    1
16.0325    0
16.0425    0
16.0525    1
16.0625    0
16.0725    0
16.0825    0
16.0925    0
16.1025    0
16.1125    1
16.1225    0
16.1325    0
16.1425    1
16.1525    2
16.1625    0
16.1725    0
16.1825    0
16.1925    1
16.2025    1
16.2125    0
16.2225    0
16.2325    0
16.2425    1
16.2525    0
16.2625    0
16.2725    0
16.2825    0
16.2925    0
16.3025    0
16.3125    0
16.3225    0
16.3325    0
16.3425    0
16.3525    0
16.3625    0
16.3725    0
16.3825    0
16.3925    0
16.4025    0
16.4125    0
16.4225    0
16.4325    0
16.4425    1
16.4525    0
16.4625    0
16.4725    0
16.4825    0
16.4925    0
16.5026    0
16.5126    0
16.5226    0
16.5326    0
16.5426    0
16.5526    0
16.5626    0
16.5726    0
16.5826    0
16.5926    0
16.6026    0
16.6126    1
16.6226    0
16.6326    0
16.6426    0
16.6526    1
16.6626    1
16.6726    0
16.6826    1
16.6926    0
16.7026    1
16.7126    0
16.7226    1
16.7326    0
16.7426    0
16.7526    1
16.7626    1
16.7726    0
16.7826    0
16.7926    0
16.8026    0
16.8126    0
16.8226    0
16.8326    0
16.8426    0
16.8526    0
16.8626    0
16.8726    0
16.8826    1
16.8926    0
16.9026    1
16.9126    1
16.9226    1
16.9326    0
16.9426    0
16.9526    0
16.9626    0
16.9726    1
16.9826    0
16.9926    0
17.0026    0
17.0126    2
17.0226    0
17.0326    0
17.0426    0
17.0526    1
17.0626    1
17.0726    0
17.0826    0
17.0926    0
17.1026    0
17.1126    1
17.1226    0
17.1326    0
17.1426    0
17.1526    1
17.1626    0
17.1726    0
17.1826    0
17.1926    0
17.2026    0
17.2126    0
17.2226    0
17.2326    0
17.2426    0
17.2526    0
17.2626    0
17.2726    0
17.2826    1
17.2926    1
17.3026    2
17.3126    1
17.3226    0
17.3326    1
17.3426    0
17.3526    0
17.3626    0
17.3726    1
17.3826    0
17.3926    1
17.4026    0
17.4126    0
17.4226    1
17.4326    0
17.4426    0
17.4526    1
17.4626    0
17.4726    0
17.4826    0
17.4926    0
17.5027    1
17.5127    0
17.5227    0
17.5327    0
17.5427    0
17.5527    0
17.5627    0
17.5727    0
17.5827    0
17.5927    2
17.6027    1
17.6127    0
17.6227    0
17.6327    0
17.6427    0
17.6527    0
17.6627    0
17.6727    0
17.6827    2
17.6927    1
17.7027    0
17.7127    0
17.7227    0
17.7327    0
17.7427    1
17.7527    0
17.7627    0
17.7727    0
17.7827    0
17.7927    0
17.8027    2
17.8127    0
17.8227    1
17.8327    0
17.8427    0
17.8527    0
17.8627    0
17.8727    0
17.8827    0
17.8927    0
17.9027    0
17.9127    0
17.9227    1
17.9327    0
17.9427    0
17.9527    1
17.9627    1
17.9727    0
17.9827    0
17.9927    0
18.0027    0
18.0127    0
18.0227    0
18.0327    0
18.0427    0
18.0527    0
18.0627    0
18.0727    1
18.0827    0
18.0927    1
18.1027    0
18.1127    1
18.1227    1
18.1327    0
18.1427    0
18.1527    2
18.1627    1
18.1727    0
18.1827    0
18.1927    0
18.2027    0
18.2127    0
18.2227    0
18.2327    0
18.2427    1
18.2527    0
18.2627    0
18.2727    0
18.2827    1
18.2927    0
18.3027    0
18.3127    1
18.3227    0
18.3327    0
18.3427    0
18.3527    0
18.3627    0
18.3727    0
18.3827    0
18.3927    0
18.4027    1
18.4127    0
18.4227    0
18.4327    0
18.4427    0
18.4527    0
18.4627    0
18.4727    0
18.4827    0
18.4927    0
18.5028    0
18.5128    0
18.5228    1
18.5328    0
18.5428    0
18.5528    1
18.5628    0
18.5728    0
18.5828    1
18.5928    0
18.6028    0
18.6128    0
18.6228    0
18.6328    1
18.6428    0
18.6528    0
18.6628    0
18.6728    1
18.6828    1
18.6928    0
18.7028    0
18.7128    1
18.7228    1
18.7328    1
18.7428    0
18.7528    0
18.7628    1
18.7728    0
18.7828    0
18.7928    0
18.8028    0
18.8128    0
18.8228    2
18.8328    0
18.8428    1
18.8528    0
18.8628    1
18.8728    0
18.8828    0
18.8928    0
18.9028    1
18.9128    0
18.9228    0
18.9328    0
18.9428    0
18.9528    0
18.9628    0
18.9728    1
18.9828    0
18.9928    0
19.0028    1
19.0128    0
19.0228    0
19.0328    0
19.0428    0
19.0528    0
19.0628    0
19.0728    1
19.0828    1
19.0928    0
19.1028    0
19.1128    0
19.1228    1
19.1328    0
19.1428    1
19.1528    0
19.1628    0
19.1728    0
19.1828    0
19.1928    0
19.2028    0
19.2128    0
19.2228    0
19.2328    0
19.2428    0
19.2528    0
19.2628    0
19.2728    0
19.2828    0
19.2928    0
19.3028    0
19.3128    0
19.3228    0
19.3328    0
19.3428    0
19.3528    1
19.3628    1
19.3728    0
19.3828    0
19.3928    0
19.4028    0
19.4128    0
19.4228    0
19.4328    0
19.4428    0
19.4528    0
19.4628    0
19.4728    0
19.4828    0
19.4928    0
19.5029    0
19.5129    0
19.5229    0
19.5329    1
19.5429    0
19.5529    0
19.5629    1
19.5729    0
19.5829    0
19.5929    0
19.6029    0
19.6129    0
19.6229    0
19.6329    0
19.6429    0
19.6529    0
19.6629    0
19.6729    0
19.6829    0
19.6929    0
19.7029    0
19.7129    0
19.7229    0
19.7329    0
19.7429    1
19.7529    0
19.7629    0
19.7729    0
19.7829    0
19.7929    0
19.8029    0
19.8129    1
19.8229    0
19.8329    0
19.8429    0
19.8529    0
19.8629    0
19.8729    1
19.8829    0
19.8929    2
19.9029    1
