Bruker Nano GmbH Berlin, Germany
Esprit 1.9

Date: 11/30/2016 12:04:37 PM
Real time: 17416
Life time: 16404
Pulse density: 1217

Primary energy: 80
Take off angle: 18
Tilt angle: 0
Azimut angle: 45

Detector type: SuperX
Window type: no window
Detector thickness: 0.45
Si dead layer:0.08

Calibration, lin.: 10.001
Calibration, abs.: -469.147
Mn FWHM: 130.888
Fano factor: 0.113
Channels: 2041

Energy Counts
-0.4691    0
-0.4591    0
-0.4491    0
-0.4391    0
-0.4291    0
-0.4191    0
-0.4091    0
-0.3991    0
-0.3891    0
-0.3791    0
-0.3691    0
-0.3591    0
-0.3491    0
-0.3391    0
-0.3291    0
-0.3191    0
-0.3091    0
-0.2991    0
-0.2891    0
-0.2791    0
-0.2691    0
-0.2591    0
-0.2491    0
-0.2391    0
-0.2291    0
-0.2191    0
-0.2091    0
-0.1991    0
-0.1891    0
-0.1791    0
-0.1691    0
-0.1591    0
-0.1491    0
-0.1391    0
-0.1291    0
-0.1191    0
-0.1091    0
-0.0991    0
-0.0891    0
-0.0791    1
-0.0691    4
-0.0591   36
-0.0491  104
-0.0391  301
-0.0291  699
-0.0191 1258
-0.0091 1940
 0.0009 2231
 0.0109 2376
 0.0209 1911
 0.0309 1267
 0.0409  701
 0.0509  299
 0.0609   96
 0.0709   27
 0.0809    5
 0.0909    2
 0.1009    1
 0.1109    0
 0.1209    0
 0.1309   34
 0.1409   44
 0.1509   46
 0.1609   36
 0.1709   40
 0.1809   50
 0.1909   43
 0.2009   80
 0.2109  108
 0.2209  189
 0.2309  351
 0.2409  554
 0.2509  742
 0.2609  972
 0.2709 1117
 0.2809 1047
 0.2909  960
 0.3009  681
 0.3109  427
 0.3209  276
 0.3309  136
 0.3409   76
 0.3509   80
 0.3609   78
 0.3709   90
 0.3809   79
 0.3909   98
 0.4009   91
 0.4109   96
 0.4209   69
 0.4309   46
 0.4409   41
 0.4509   52
 0.4609   68
 0.4709   75
 0.4809  145
 0.4909  186
  0.501  245
  0.511  328
  0.521  397
  0.531  360
  0.541  367
  0.551  269
  0.561  180
  0.571  111
  0.581   95
  0.591   53
  0.601   28
  0.611   17
  0.621   23
  0.631   12
  0.641   14
  0.651   16
  0.661   11
  0.671   16
  0.681   13
  0.691   16
  0.701   19
  0.711   16
  0.721   19
  0.731   13
  0.741   13
  0.751   11
  0.761   11
  0.771   16
  0.781   11
  0.791   11
  0.801   10
  0.811    9
  0.821    8
  0.831   12
  0.841   13
  0.851   13
  0.861    9
  0.871   14
  0.881    8
  0.891   14
  0.901    8
  0.911    8
  0.921    9
  0.931    3
  0.941   12
  0.951    8
  0.961   19
  0.971   14
  0.981   13
  0.991   19
  1.001   25
  1.011   43
  1.021   32
  1.031   51
  1.041   50
  1.051   73
  1.061   62
  1.071   58
  1.081   69
  1.091   60
  1.101   38
  1.111   61
  1.121   46
  1.131   67
  1.141   40
  1.151   37
  1.161   37
  1.171   18
  1.181   17
  1.191   17
  1.201   12
  1.211   14
  1.221   21
  1.231   19
  1.241   22
  1.251   23
  1.261   23
  1.271   23
  1.281   28
  1.291   16
  1.301   10
  1.311    8
  1.321   12
  1.331    5
  1.341    8
  1.351    4
  1.361    7
  1.371    6
  1.381   10
  1.391    6
  1.401    8
  1.411    9
  1.421    4
  1.431    9
  1.441   11
  1.451    9
  1.461    8
  1.471   12
  1.481   12
  1.491   11
 1.5011   11
 1.5111    7
 1.5211    5
 1.5311   16
 1.5411    3
 1.5511    6
 1.5611   12
 1.5711    6
 1.5811    4
 1.5911   11
 1.6011    7
 1.6111    7
 1.6211    5
 1.6311    8
 1.6411   14
 1.6511   10
 1.6611   19
 1.6711   43
 1.6811   30
 1.6911   67
 1.7011   94
 1.7111  116
 1.7211  145
 1.7311  200
 1.7411  200
 1.7511  252
 1.7611  182
 1.7711  162
 1.7811  143
 1.7911   97
 1.8011   80
 1.8111   50
 1.8211   40
 1.8311   32
 1.8411   23
 1.8511   16
 1.8611   13
 1.8711   19
 1.8811    7
 1.8911    6
 1.9011    9
 1.9111   10
 1.9211    6
 1.9311    8
 1.9411    3
 1.9511    6
 1.9611    5
 1.9711    6
 1.9811    7
 1.9911    6
 2.0011   10
 2.0111   10
 2.0211   10
 2.0311   18
 2.0411   19
 2.0511   15
 2.0611   12
 2.0711   19
 2.0811   12
 2.0911   12
 2.1011   16
 2.1111    8
 2.1211    9
 2.1311   15
 2.1411    7
 2.1511   13
 2.1611    8
 2.1711   12
 2.1811    6
 2.1911   17
 2.2011   11
 2.2111   10
 2.2211   17
 2.2311   13
 2.2411   32
 2.2511   48
 2.2611   59
 2.2711   82
 2.2811   83
 2.2911  107
 2.3011  136
 2.3111  135
 2.3211  134
 2.3311  108
 2.3411  105
 2.3511   83
 2.3611   68
 2.3711   57
 2.3811   34
 2.3911   24
 2.4011   16
 2.4111   12
 2.4211   18
 2.4311   12
 2.4411   12
 2.4511   12
 2.4611   11
 2.4711   11
 2.4811   14
 2.4911   11
 2.5012   11
 2.5112    9
 2.5212   12
 2.5312    8
 2.5412    5
 2.5512    5
 2.5612    5
 2.5712    6
 2.5812    6
 2.5912    6
 2.6012    9
 2.6112    9
 2.6212   10
 2.6312    3
 2.6412   12
 2.6512    5
 2.6612    6
 2.6712    8
 2.6812    2
 2.6912    6
 2.7012    2
 2.7112    6
 2.7212    1
 2.7312    4
 2.7412    2
 2.7512    4
 2.7612    2
 2.7712    2
 2.7812    2
 2.7912    1
 2.8012    2
 2.8112    2
 2.8212    4
 2.8312    3
 2.8412    1
 2.8512    4
 2.8612    3
 2.8712    2
 2.8812    5
 2.8912    3
 2.9012    5
 2.9112    0
 2.9212    2
 2.9312    2
 2.9412    1
 2.9512    4
 2.9612    1
 2.9712    4
 2.9812    2
 2.9912    5
 3.0012    3
 3.0112    4
 3.0212    3
 3.0312    4
 3.0412    0
 3.0512    3
 3.0612    1
 3.0712    2
 3.0812    2
 3.0912    0
 3.1012    2
 3.1112    4
 3.1212    5
 3.1312    2
 3.1412    3
 3.1512    1
 3.1612    5
 3.1712    1
 3.1812    6
 3.1912    5
 3.2012    3
 3.2112    2
 3.2212    4
 3.2312    1
 3.2412    1
 3.2512    3
 3.2612    3
 3.2712    3
 3.2812    2
 3.2912    2
 3.3012    4
 3.3112    2
 3.3212    2
 3.3312    7
 3.3412    1
 3.3512    2
 3.3612    2
 3.3712    4
 3.3812    3
 3.3912    1
 3.4012    1
 3.4112    6
 3.4212    3
 3.4312    2
 3.4412    3
 3.4512    5
 3.4612    4
 3.4712    0
 3.4812    3
 3.4912    2
 3.5013    2
 3.5113    4
 3.5213    3
 3.5313    4
 3.5413    5
 3.5513    5
 3.5613    2
 3.5713    1
 3.5813    1
 3.5913    1
 3.6013    3
 3.6113    5
 3.6213    1
 3.6313    1
 3.6413    1
 3.6513    3
 3.6613    6
 3.6713    3
 3.6813    1
 3.6913    5
 3.7013    3
 3.7113    8
 3.7213    3
 3.7313    2
 3.7413    1
 3.7513    1
 3.7613    2
 3.7713    2
 3.7813    5
 3.7913    1
 3.8013    2
 3.8113    1
 3.8213    4
 3.8313    2
 3.8413    2
 3.8513    4
 3.8613    2
 3.8713    2
 3.8813    1
 3.8913    1
 3.9013    1
 3.9113    3
 3.9213    5
 3.9313    2
 3.9413    3
 3.9513    3
 3.9613    1
 3.9713    6
 3.9813    2
 3.9913    3
 4.0013    3
 4.0113    6
 4.0213    6
 4.0313    5
 4.0413    1
 4.0513    1
 4.0613    1
 4.0713    1
 4.0813    2
 4.0913    1
 4.1013    0
 4.1113    2
 4.1213    2
 4.1313    1
 4.1413    2
 4.1513    0
 4.1613    3
 4.1713    0
 4.1813    2
 4.1913    1
 4.2013    2
 4.2113    2
 4.2213    0
 4.2313    5
 4.2413    4
 4.2513    2
 4.2613    1
 4.2713    4
 4.2813    4
 4.2913    6
 4.3013    0
 4.3113    1
 4.3213    0
 4.3313    5
 4.3413    3
 4.3513    4
 4.3613    4
 4.3713    2
 4.3813    1
 4.3913    1
 4.4013    3
 4.4113    2
 4.4213    3
 4.4313    3
 4.4413    1
 4.4513    2
 4.4613    4
 4.4713    3
 4.4813    3
 4.4913    0
 4.5014    4
 4.5114    4
 4.5214    2
 4.5314    2
 4.5414    3
 4.5514    0
 4.5614    1
 4.5714    4
 4.5814    3
 4.5914    2
 4.6014    2
 4.6114    0
 4.6214    0
 4.6314    3
 4.6414    2
 4.6514    1
 4.6614    2
 4.6714    3
 4.6814    1
 4.6914    4
 4.7014    1
 4.7114    2
 4.7214    3
 4.7314    3
 4.7414    0
 4.7514    2
 4.7614    1
 4.7714    5
 4.7814    0
 4.7914    4
 4.8014    1
 4.8114    2
 4.8214    4
 4.8314    2
 4.8414    1
 4.8514    2
 4.8614    1
 4.8714    2
 4.8814    4
 4.8914    4
 4.9014    2
 4.9114    3
 4.9214    2
 4.9314    0
 4.9414    4
 4.9514    3
 4.9614    4
 4.9714    2
 4.9814    5
 4.9914    2
 5.0014    1
 5.0114    1
 5.0214    3
 5.0314    1
 5.0414    1
 5.0514    1
 5.0614    0
 5.0714    1
 5.0814    0
 5.0914    0
 5.1014    3
 5.1114    5
 5.1214    1
 5.1314    1
 5.1414    0
 5.1514    1
 5.1614    2
 5.1714    2
 5.1814    2
 5.1914    2
 5.2014    3
 5.2114    2
 5.2214    1
 5.2314    2
 5.2414    2
 5.2514    2
 5.2614    4
 5.2714    1
 5.2814    1
 5.2914    2
 5.3014    1
 5.3114    1
 5.3214    4
 5.3314    0
 5.3414    4
 5.3514    4
 5.3614    1
 5.3714    2
 5.3814    1
 5.3914    3
 5.4014    2
 5.4114    1
 5.4214    2
 5.4314    3
 5.4414    2
 5.4514    1
 5.4614    3
 5.4714    1
 5.4814    1
 5.4914    2
 5.5015    0
 5.5115    2
 5.5215    2
 5.5315    0
 5.5415    1
 5.5515    2
 5.5615    1
 5.5715    4
 5.5815    0
 5.5915    0
 5.6015    0
 5.6115    1
 5.6215    0
 5.6315    1
 5.6415    1
 5.6515    2
 5.6615    0
 5.6715    2
 5.6815    2
 5.6915    4
 5.7015    3
 5.7115    1
 5.7215    1
 5.7315    1
 5.7415    3
 5.7515    2
 5.7615    1
 5.7715    1
 5.7815    0
 5.7915    0
 5.8015    1
 5.8115    1
 5.8215    2
 5.8315    0
 5.8415    1
 5.8515    2
 5.8615    0
 5.8715    1
 5.8815    2
 5.8915    0
 5.9015    0
 5.9115    1
 5.9215    0
 5.9315    5
 5.9415    2
 5.9515    0
 5.9615    4
 5.9715    2
 5.9815    2
 5.9915    1
 6.0015    1
 6.0115    1
 6.0215    1
 6.0315    0
 6.0415    1
 6.0515    1
 6.0615    3
 6.0715    1
 6.0815    2
 6.0915    0
 6.1015    1
 6.1115    1
 6.1215    1
 6.1315    0
 6.1415    2
 6.1515    1
 6.1615    3
 6.1715    3
 6.1815    2
 6.1915    2
 6.2015    0
 6.2115    2
 6.2215    3
 6.2315    3
 6.2415    4
 6.2515    3
 6.2615    2
 6.2715    1
 6.2815    2
 6.2915    3
 6.3015    1
 6.3115    5
 6.3215    4
 6.3315    2
 6.3415    5
 6.3515    5
 6.3615    3
 6.3715    8
 6.3815    6
 6.3915    7
 6.4015    4
 6.4115    7
 6.4215   12
 6.4315    9
 6.4415    2
 6.4515    6
 6.4615    8
 6.4715    3
 6.4815    6
 6.4915    4
 6.5016    2
 6.5116    4
 6.5216    2
 6.5316    1
 6.5416    2
 6.5516    0
 6.5616    3
 6.5716    2
 6.5816    3
 6.5916    0
 6.6016    1
 6.6116    2
 6.6216    1
 6.6316    4
 6.6416    1
 6.6516    2
 6.6616    1
 6.6716    0
 6.6816    2
 6.6916    0
 6.7016    3
 6.7116    1
 6.7216    0
 6.7316    2
 6.7416    2
 6.7516    1
 6.7616    3
 6.7716    1
 6.7816    4
 6.7916    3
 6.8016    1
 6.8116    3
 6.8216    4
 6.8316    0
 6.8416    0
 6.8516    1
 6.8616    1
 6.8716    1
 6.8816    1
 6.8916    0
 6.9016    1
 6.9116    1
 6.9216    2
 6.9316    4
 6.9416    3
 6.9516    0
 6.9616    3
 6.9716    2
 6.9816    1
 6.9916    1
 7.0016    1
 7.0116    2
 7.0216    2
 7.0316    3
 7.0416    0
 7.0516    1
 7.0616    2
 7.0716    1
 7.0816    1
 7.0916    0
 7.1016    2
 7.1116    1
 7.1216    1
 7.1316    1
 7.1416    0
 7.1516    1
 7.1616    0
 7.1716    3
 7.1816    1
 7.1916    1
 7.2016    3
 7.2116    1
 7.2216    1
 7.2316    0
 7.2416    0
 7.2516    3
 7.2616    1
 7.2716    1
 7.2816    1
 7.2916    2
 7.3016    1
 7.3116    4
 7.3216    0
 7.3316    0
 7.3416    0
 7.3516    0
 7.3616    1
 7.3716    0
 7.3816    2
 7.3916    0
 7.4016    0
 7.4116    2
 7.4216    1
 7.4316    0
 7.4416    2
 7.4516    3
 7.4616    1
 7.4716    2
 7.4816    0
 7.4916    2
 7.5017    0
 7.5117    0
 7.5217    2
 7.5317    2
 7.5417    1
 7.5517    2
 7.5617    1
 7.5717    4
 7.5817    1
 7.5917    0
 7.6017    1
 7.6117    2
 7.6217    1
 7.6317    1
 7.6417    0
 7.6517    0
 7.6617    2
 7.6717    0
 7.6817    1
 7.6917    2
 7.7017    4
 7.7117    1
 7.7217    1
 7.7317    0
 7.7417    0
 7.7517    1
 7.7617    1
 7.7717    0
 7.7817    3
 7.7917    0
 7.8017    1
 7.8117    3
 7.8217    2
 7.8317    1
 7.8417    0
 7.8517    2
 7.8617    1
 7.8717    1
 7.8817    1
 7.8917    4
 7.9017    0
 7.9117    1
 7.9217    1
 7.9317    1
 7.9417    0
 7.9517    4
 7.9617    7
 7.9717    3
 7.9817    0
 7.9917    8
 8.0017    8
 8.0117    3
 8.0217    7
 8.0317    3
 8.0417    8
 8.0517   10
 8.0617    2
 8.0717    9
 8.0817    2
 8.0917    8
 8.1017    7
 8.1117    0
 8.1217    1
 8.1317    4
 8.1417    2
 8.1517    2
 8.1617    5
 8.1717    3
 8.1817    1
 8.1917    3
 8.2017    0
 8.2117    1
 8.2217    1
 8.2317    3
 8.2417    1
 8.2517    4
 8.2617    0
 8.2717    2
 8.2817    3
 8.2917    1
 8.3017    2
 8.3117    0
 8.3217    3
 8.3317    1
 8.3417    1
 8.3517    2
 8.3617    1
 8.3717    4
 8.3817    1
 8.3917    0
 8.4017    0
 8.4117    0
 8.4217    1
 8.4317    0
 8.4417    1
 8.4517    2
 8.4617    2
 8.4717    1
 8.4817    0
 8.4917    1
 8.5018    2
 8.5118    3
 8.5218    2
 8.5318    1
 8.5418    1
 8.5518    2
 8.5618    3
 8.5718    3
 8.5818    0
 8.5918    1
 8.6018    2
 8.6118    2
 8.6218    1
 8.6318    0
 8.6418    2
 8.6518    1
 8.6618    1
 8.6718    1
 8.6818    2
 8.6918    1
 8.7018    2
 8.7118    0
 8.7218    1
 8.7318    2
 8.7418    0
 8.7518    1
 8.7618    1
 8.7718    0
 8.7818    4
 8.7918    2
 8.8018    1
 8.8118    2
 8.8218    1
 8.8318    1
 8.8418    2
 8.8518    1
 8.8618    3
 8.8718    2
 8.8818    5
 8.8918    2
 8.9018    3
 8.9118    4
 8.9218    2
 8.9318    1
 8.9418    2
 8.9518    2
 8.9618    8
 8.9718    0
 8.9818    3
 8.9918    3
 9.0018    1
 9.0118    4
 9.0218    1
 9.0318    0
 9.0418    2
 9.0518    0
 9.0618    5
 9.0718    2
 9.0818    1
 9.0918    1
 9.1018    2
 9.1118    5
 9.1218    9
 9.1318    5
 9.1418    7
 9.1518    9
 9.1618   13
 9.1718    9
 9.1818   17
 9.1918   15
 9.2018   10
 9.2118   17
 9.2218   19
 9.2318   19
 9.2418   14
 9.2518   11
 9.2618   15
 9.2718   16
 9.2818   10
 9.2918   14
 9.3018   11
 9.3118   11
 9.3218    2
 9.3318   10
 9.3418    5
 9.3518   11
 9.3618    5
 9.3718    1
 9.3818    6
 9.3918    3
 9.4018    2
 9.4118    1
 9.4218    2
 9.4318    8
 9.4418    7
 9.4518    1
 9.4618    6
 9.4718    7
 9.4818    3
 9.4918    5
 9.5019    6
 9.5119    6
 9.5219    0
 9.5319    2
 9.5419    0
 9.5519    0
 9.5619    2
 9.5719    0
 9.5819    1
 9.5919    3
 9.6019    2
 9.6119    2
 9.6219    2
 9.6319    0
 9.6419    3
 9.6519    0
 9.6619    0
 9.6719    2
 9.6819    3
 9.6919    3
 9.7019    0
 9.7119    0
 9.7219    1
 9.7319    0
 9.7419    0
 9.7519    2
 9.7619    1
 9.7719    2
 9.7819    2
 9.7919    0
 9.8019    0
 9.8119    2
 9.8219    1
 9.8319    0
 9.8419    1
 9.8519    0
 9.8619    0
 9.8719    1
 9.8819    0
 9.8919    0
 9.9019    0
 9.9119    0
 9.9219    2
 9.9319    3
 9.9419    2
 9.9519    1
 9.9619    0
 9.9719    2
 9.9819    0
 9.9919    1
10.0019    2
10.0119    1
10.0219    0
10.0319    0
10.0419    0
10.0519    1
10.0619    0
10.0719    0
10.0819    3
10.0919    2
10.1019    3
10.1119    2
10.1219    2
10.1319    1
10.1419    1
10.1519    1
10.1619    3
10.1719    3
10.1819    2
10.1919    2
10.2019    3
10.2119    4
10.2219    2
10.2319    8
10.2419    1
10.2519    4
10.2619    5
10.2719    5
10.2819    3
10.2919    4
10.3019    7
10.3119    3
10.3219    2
10.3319    1
10.3419    5
10.3519    2
10.3619    1
10.3719    1
10.3819    3
10.3919    3
10.4019    1
10.4119    0
10.4219    0
10.4319    1
10.4419    0
10.4519    3
10.4619    0
10.4719    0
10.4819    0
10.4919    2
 10.502    0
 10.512    2
 10.522    0
 10.532    1
 10.542    1
 10.552    0
 10.562    1
 10.572    2
 10.582    0
 10.592    1
 10.602    0
 10.612    1
 10.622    0
 10.632    1
 10.642    1
 10.652    0
 10.662    0
 10.672    1
 10.682    2
 10.692    1
 10.702    0
 10.712    1
 10.722    1
 10.732    0
 10.742    1
 10.752    0
 10.762    2
 10.772    0
 10.782    1
 10.792    0
 10.802    1
 10.812    1
 10.822    0
 10.832    0
 10.842    0
 10.852    2
 10.862    1
 10.872    0
 10.882    3
 10.892    2
 10.902    1
 10.912    0
 10.922    0
 10.932    3
 10.942    0
 10.952    1
 10.962    1
 10.972    3
 10.982    2
 10.992    1
 11.002    4
 11.012    2
 11.022    6
 11.032    0
 11.042    2
 11.052    3
 11.062    2
 11.072    2
 11.082    1
 11.092    0
 11.102    1
 11.112    6
 11.122    2
 11.132    4
 11.142    3
 11.152    4
 11.162    1
 11.172    1
 11.182    2
 11.192    3
 11.202    0
 11.212    2
 11.222    0
 11.232    6
 11.242    1
 11.252    1
 11.262    0
 11.272    1
 11.282    2
 11.292    2
 11.302    2
 11.312    2
 11.322    1
 11.332    1
 11.342    1
 11.352    1
 11.362    2
 11.372    2
 11.382    2
 11.392    0
 11.402    3
 11.412    1
 11.422    0
 11.432    0
 11.442    0
 11.452    0
 11.462    2
 11.472    0
 11.482    0
 11.492    0
11.5021    1
11.5121    1
11.5221    0
11.5321    0
11.5421    0
11.5521    2
11.5621    0
11.5721    1
11.5821    0
11.5921    0
11.6021    0
11.6121    0
11.6221    1
11.6321    1
11.6421    2
11.6521    1
11.6621    0
11.6721    1
11.6821    1
11.6921    0
11.7021    0
11.7121    1
11.7221    1
11.7321    1
11.7421    1
11.7521    1
11.7621    0
11.7721    0
11.7821    1
11.7921    0
11.8021    1
11.8121    0
11.8221    0
11.8321    0
11.8421    2
11.8521    0
11.8621    2
11.8721    0
11.8821    1
11.8921    0
11.9021    2
11.9121    1
11.9221    1
11.9321    0
11.9421    0
11.9521    0
11.9621    0
11.9721    1
11.9821    1
11.9921    2
12.0021    0
12.0121    1
12.0221    2
12.0321    1
12.0421    0
12.0521    1
12.0621    1
12.0721    2
12.0821    1
12.0921    0
12.1021    2
12.1121    0
12.1221    0
12.1321    0
12.1421    1
12.1521    2
12.1621    0
12.1721    2
12.1821    1
12.1921    0
12.2021    1
12.2121    1
12.2221    0
12.2321    3
12.2421    1
12.2521    1
12.2621    1
12.2721    3
12.2821    0
12.2921    1
12.3021    1
12.3121    0
12.3221    0
12.3321    0
12.3421    1
12.3521    0
12.3621    0
12.3721    1
12.3821    2
12.3921    1
12.4021    1
12.4121    0
12.4221    4
12.4321    1
12.4421    0
12.4521    3
12.4621    0
12.4721    2
12.4821    1
12.4921    0
12.5022    1
12.5122    0
12.5222    1
12.5322    1
12.5422    1
12.5522    0
12.5622    0
12.5722    1
12.5822    0
12.5922    3
12.6022    1
12.6122    2
12.6222    0
12.6322    0
12.6422    0
12.6522    1
12.6622    1
12.6722    0
12.6822    2
12.6922    0
12.7022    1
12.7122    4
12.7222    1
12.7322    2
12.7422    3
12.7522    0
12.7622    1
12.7722    1
12.7822    0
12.7922    0
12.8022    2
12.8122    1
12.8222    1
12.8322    0
12.8422    1
12.8522    0
12.8622    0
12.8722    0
12.8822    1
12.8922    2
12.9022    1
12.9122    2
12.9222    0
12.9322    0
12.9422    2
12.9522    0
12.9622    1
12.9722    0
12.9822    0
12.9922    1
13.0022    0
13.0122    1
13.0222    1
13.0322    1
13.0422    0
13.0522    1
13.0622    2
13.0722    0
13.0822    0
13.0922    2
13.1022    0
13.1122    2
13.1222    3
13.1322    1
13.1422    0
13.1522    3
13.1622    0
13.1722    1
13.1822    1
13.1922    3
13.2022    0
13.2122    2
13.2222    0
13.2322    1
13.2422    2
13.2522    1
13.2622    0
13.2722    0
13.2822    1
13.2922    3
13.3022    0
13.3122    0
13.3222    0
13.3322    1
13.3422    1
13.3522    1
13.3622    0
13.3722    2
13.3822    1
13.3922    0
13.4022    1
13.4122    3
13.4222    0
13.4322    1
13.4422    0
13.4522    1
13.4622    1
13.4722    0
13.4822    0
13.4922    0
13.5023    0
13.5123    1
13.5223    0
13.5323    0
13.5423    0
13.5523    0
13.5623    0
13.5723    0
13.5823    1
13.5923    0
13.6023    0
13.6123    1
13.6223    1
13.6323    0
13.6423    1
13.6523    0
13.6623    2
13.6723    1
13.6823    2
13.6923    0
13.7023    0
13.7123    1
13.7223    0
13.7323    1
13.7423    0
13.7523    1
13.7623    0
13.7723    0
13.7823    0
13.7923    0
13.8023    2
13.8123    0
13.8223    0
13.8323    0
13.8423    1
13.8523    0
13.8623    0
13.8723    0
13.8823    1
13.8923    1
13.9023    0
13.9123    0
13.9223    0
13.9323    1
13.9423    0
13.9523    0
13.9623    0
13.9723    0
13.9823    0
13.9923    1
14.0023    0
14.0123    1
14.0223    1
14.0323    1
14.0423    0
14.0523    0
14.0623    2
14.0723    0
14.0823    2
14.0923    0
14.1023    0
14.1123    0
14.1223    1
14.1323    0
14.1423    0
14.1523    2
14.1623    0
14.1723    0
14.1823    0
14.1923    2
14.2023    0
14.2123    0
14.2223    0
14.2323    0
14.2423    0
14.2523    0
14.2623    1
14.2723    1
14.2823    3
14.2923    1
14.3023    0
14.3123    0
14.3223    1
14.3323    0
14.3423    0
14.3523    0
14.3623    1
14.3723    0
14.3823    0
14.3923    0
14.4023    0
14.4123    0
14.4223    1
14.4323    1
14.4423    0
14.4523    2
14.4623    0
14.4723    0
14.4823    0
14.4923    1
14.5024    0
14.5124    0
14.5224    0
14.5324    0
14.5424    1
14.5524    1
14.5624    0
14.5724    3
14.5824    0
14.5924    2
14.6024    1
14.6124    0
14.6224    1
14.6324    0
14.6424    0
14.6524    0
14.6624    1
14.6724    0
14.6824    0
14.6924    1
14.7024    1
14.7124    0
14.7224    0
14.7324    0
14.7424    0
14.7524    0
14.7624    0
14.7724    2
14.7824    0
14.7924    1
14.8024    2
14.8124    0
14.8224    0
14.8324    0
14.8424    0
14.8524    0
14.8624    0
14.8724    0
14.8824    0
14.8924    1
14.9024    0
14.9124    0
14.9224    1
14.9324    0
14.9424    0
14.9524    1
14.9624    0
14.9724    0
14.9824    0
14.9924    0
15.0024    1
15.0124    0
15.0224    0
15.0324    0
15.0424    0
15.0524    1
15.0624    0
15.0724    2
15.0824    1
15.0924    2
15.1024    1
15.1124    0
15.1224    0
15.1324    0
15.1424    1
15.1524    0
15.1624    0
15.1724    0
15.1824    2
15.1924    0
15.2024    0
15.2124    0
15.2224    1
15.2324    0
15.2424    0
15.2524    0
15.2624    0
15.2724    1
15.2824    0
15.2924    0
15.3024    0
15.3124    1
15.3224    0
15.3324    1
15.3424    0
15.3524    0
15.3624    0
15.3724    1
15.3824    0
15.3924    0
15.4024    0
15.4124    0
15.4224    2
15.4324    0
15.4424    0
15.4524    0
15.4624    1
15.4724    1
15.4824    0
15.4924    0
15.5025    0
15.5125    1
15.5225    0
15.5325    1
15.5425    0
15.5525    0
15.5625    1
15.5725    2
15.5825    1
15.5925    0
15.6025    2
15.6125    3
15.6225    4
15.6325    1
15.6425    0
15.6525    5
15.6625    0
15.6725    0
15.6825    0
15.6925    0
15.7025    2
15.7125    1
15.7225    1
15.7325    0
15.7425    1
15.7525    1
15.7625    0
15.7725    0
15.7825    0
15.7925    0
15.8025    0
15.8125    0
15.8225    0
15.8325    0
15.8425    0
15.8525    0
15.8625    0
15.8725    0
15.8825    0
15.8925    0
15.9025    0
15.9125    0
15.9225    0
15.9325    1
15.9425    0
15.9525    0
15.9625    1
15.9725    0
15.9825    0
15.9925    0
16.0025    0
16.0125    1
16.0225    0
16.0325    1
16.0425    0
16.0525    0
16.0625    0
16.0725    0
16.0825    1
16.0925    1
16.1025    0
16.1125    0
16.1225    0
16.1325    0
16.1425    1
16.1525    0
16.1625    0
16.1725    1
16.1825    0
16.1925    0
16.2025    0
16.2125    1
16.2225    1
16.2325    0
16.2425    1
16.2525    1
16.2625    1
16.2725    0
16.2825    0
16.2925    0
16.3025    0
16.3125    0
16.3225    1
16.3325    0
16.3425    0
16.3525    0
16.3625    1
16.3725    0
16.3825    0
16.3925    0
16.4025    0
16.4125    0
16.4225    0
16.4325    1
16.4425    0
16.4525    0
16.4625    0
16.4725    0
16.4825    0
16.4925    1
16.5026    0
16.5126    0
16.5226    0
16.5326    0
16.5426    1
16.5526    0
16.5626    0
16.5726    0
16.5826    0
16.5926    0
16.6026    0
16.6126    1
16.6226    1
16.6326    1
16.6426    0
16.6526    0
16.6626    0
16.6726    1
16.6826    0
16.6926    0
16.7026    0
16.7126    0
16.7226    0
16.7326    0
16.7426    0
16.7526    0
16.7626    0
16.7726    0
16.7826    0
16.7926    0
16.8026    0
16.8126    0
16.8226    1
16.8326    1
16.8426    1
16.8526    1
16.8626    0
16.8726    1
16.8826    1
16.8926    0
16.9026    0
16.9126    1
16.9226    0
16.9326    0
16.9426    0
16.9526    0
16.9626    0
16.9726    0
16.9826    1
16.9926    0
17.0026    0
17.0126    0
17.0226    0
17.0326    0
17.0426    0
17.0526    0
17.0626    0
17.0726    0
17.0826    0
17.0926    0
17.1026    0
17.1126    0
17.1226    0
17.1326    2
17.1426    0
17.1526    1
17.1626    0
17.1726    1
17.1826    0
17.1926    1
17.2026    0
17.2126    0
17.2226    0
17.2326    0
17.2426    0
17.2526    0
17.2626    0
17.2726    1
17.2826    1
17.2926    0
17.3026    0
17.3126    1
17.3226    0
17.3326    0
17.3426    1
17.3526    0
17.3626    0
17.3726    0
17.3826    0
17.3926    0
17.4026    0
17.4126    0
17.4226    0
17.4326    0
17.4426    0
17.4526    0
17.4626    0
17.4726    1
17.4826    0
17.4926    0
17.5027    0
17.5127    0
17.5227    1
17.5327    0
17.5427    0
17.5527    0
17.5627    0
17.5727    0
17.5827    1
17.5927    1
17.6027    0
17.6127    1
17.6227    1
17.6327    0
17.6427    0
17.6527    2
17.6627    0
17.6727    1
17.6827    0
17.6927    1
17.7027    0
17.7127    0
17.7227    0
17.7327    1
17.7427    0
17.7527    0
17.7627    1
17.7727    0
17.7827    0
17.7927    0
17.8027    1
17.8127    1
17.8227    1
17.8327    0
17.8427    0
17.8527    1
17.8627    0
17.8727    0
17.8827    0
17.8927    0
17.9027    0
17.9127    1
17.9227    0
17.9327    0
17.9427    0
17.9527    0
17.9627    0
17.9727    0
17.9827    0
17.9927    0
18.0027    0
18.0127    0
18.0227    0
18.0327    0
18.0427    0
18.0527    0
18.0627    1
18.0727    0
18.0827    0
18.0927    0
18.1027    0
18.1127    0
18.1227    0
18.1327    0
18.1427    0
18.1527    1
18.1627    0
18.1727    1
18.1827    0
18.1927    0
18.2027    0
18.2127    0
18.2227    0
18.2327    0
18.2427    0
18.2527    1
18.2627    1
18.2727    0
18.2827    0
18.2927    0
18.3027    0
18.3127    0
18.3227    0
18.3327    0
18.3427    1
18.3527    0
18.3627    0
18.3727    0
18.3827    0
18.3927    0
18.4027    0
18.4127    0
18.4227    0
18.4327    0
18.4427    0
18.4527    0
18.4627    0
18.4727    0
18.4827    0
18.4927    1
18.5028    1
18.5128    1
18.5228    0
18.5328    0
18.5428    0
18.5528    0
18.5628    0
18.5728    0
18.5828    0
18.5928    0
18.6028    0
18.6128    0
18.6228    0
18.6328    0
18.6428    0
18.6528    0
18.6628    0
18.6728    0
18.6828    0
18.6928    0
18.7028    0
18.7128    0
18.7228    0
18.7328    1
18.7428    0
18.7528    2
18.7628    0
18.7728    0
18.7828    0
18.7928    0
18.8028    0
18.8128    0
18.8228    1
18.8328    0
18.8428    1
18.8528    0
18.8628    0
18.8728    0
18.8828    0
18.8928    0
18.9028    0
18.9128    0
18.9228    1
18.9328    1
18.9428    0
18.9528    0
18.9628    1
18.9728    0
18.9828    0
18.9928    0
19.0028    0
19.0128    0
19.0228    1
19.0328    1
19.0428    0
19.0528    0
19.0628    0
19.0728    0
19.0828    0
19.0928    0
19.1028    0
19.1128    0
19.1228    0
19.1328    1
19.1428    1
19.1528    0
19.1628    0
19.1728    0
19.1828    1
19.1928    0
19.2028    0
19.2128    0
19.2228    0
19.2328    1
19.2428    1
19.2528    0
19.2628    0
19.2728    0
19.2828    1
19.2928    0
19.3028    0
19.3128    0
19.3228    0
19.3328    0
19.3428    0
19.3528    0
19.3628    0
19.3728    0
19.3828    0
19.3928    0
19.4028    0
19.4128    0
19.4228    0
19.4328    0
19.4428    0
19.4528    0
19.4628    0
19.4728    1
19.4828    0
19.4928    1
19.5029    0
19.5129    0
19.5229    0
19.5329    0
19.5429    0
19.5529    0
19.5629    0
19.5729    0
19.5829    0
19.5929    0
19.6029    0
19.6129    0
19.6229    1
19.6329    1
19.6429    0
19.6529    0
19.6629    0
19.6729    0
19.6829    0
19.6929    0
19.7029    0
19.7129    0
19.7229    0
19.7329    0
19.7429    0
19.7529    0
19.7629    0
19.7729    0
19.7829    0
19.7929    0
19.8029    0
19.8129    1
19.8229    1
19.8329    1
19.8429    0
19.8529    0
19.8629    0
19.8729    0
19.8829    0
19.8929    1
19.9029    0
19.9129    0
19.9229    0
19.9329    1
