Bruker Nano GmbH Berlin, Germany
Esprit 1.9

Date: 11/30/2016 12:04:37 PM
Real time: 6354
Life time: 5958
Pulse density: 1409

Primary energy: 80
Take off angle: 18
Tilt angle: 0
Azimut angle: 45

Detector type: SuperX
Window type: no window
Detector thickness: 0.45
Si dead layer:0.08

Calibration, lin.: 10.001
Calibration, abs.: -469.147
Mn FWHM: 130.856
Fano factor: 0.113
Channels: 2010

Energy Counts
-0.4691   0
-0.4591   0
-0.4491   0
-0.4391   0
-0.4291   0
-0.4191   0
-0.4091   0
-0.3991   0
-0.3891   0
-0.3791   0
-0.3691   0
-0.3591   0
-0.3491   0
-0.3391   0
-0.3291   0
-0.3191   0
-0.3091   0
-0.2991   0
-0.2891   0
-0.2791   0
-0.2691   0
-0.2591   0
-0.2491   0
-0.2391   0
-0.2291   0
-0.2191   0
-0.2091   0
-0.1991   0
-0.1891   0
-0.1791   0
-0.1691   0
-0.1591   0
-0.1491   0
-0.1391   0
-0.1291   0
-0.1191   0
-0.1091   0
-0.0991   0
-0.0891   0
-0.0791   0
-0.0691   2
-0.0591  10
-0.0491  26
-0.0391 131
-0.0291 271
-0.0191 447
-0.0091 714
 0.0009 843
 0.0109 837
 0.0209 679
 0.0309 449
 0.0409 251
 0.0509  95
 0.0609  38
 0.0709   9
 0.0809   0
 0.0909   1
 0.1009   0
 0.1109   0
 0.1209   0
 0.1309  10
 0.1409  15
 0.1509  13
 0.1609  18
 0.1709  11
 0.1809  21
 0.1909  13
 0.2009  30
 0.2109  42
 0.2209  66
 0.2309 119
 0.2409 196
 0.2509 276
 0.2609 333
 0.2709 382
 0.2809 356
 0.2909 318
 0.3009 201
 0.3109 138
 0.3209  80
 0.3309  45
 0.3409  33
 0.3509  22
 0.3609  28
 0.3709  36
 0.3809  47
 0.3909  45
 0.4009  35
 0.4109  46
 0.4209  21
 0.4309  18
 0.4409  22
 0.4509  25
 0.4609  32
 0.4709  39
 0.4809  61
 0.4909  94
  0.501 115
  0.511 195
  0.521 195
  0.531 200
  0.541 191
  0.551 134
  0.561  93
  0.571  57
  0.581  27
  0.591  19
  0.601   9
  0.611   6
  0.621   9
  0.631   7
  0.641  13
  0.651   5
  0.661   4
  0.671   6
  0.681   8
  0.691   9
  0.701   6
  0.711   8
  0.721   8
  0.731   5
  0.741   4
  0.751   7
  0.761   4
  0.771   3
  0.781   5
  0.791   3
  0.801   6
  0.811   6
  0.821   7
  0.831   4
  0.841   2
  0.851   5
  0.861   3
  0.871   1
  0.881   6
  0.891   3
  0.901   4
  0.911   8
  0.921   4
  0.931   7
  0.941  11
  0.951   6
  0.961   8
  0.971   2
  0.981  11
  0.991  15
  1.001  15
  1.011  13
  1.021  29
  1.031  28
  1.041  45
  1.051  44
  1.061  31
  1.071  28
  1.081  32
  1.091  26
  1.101  19
  1.111  26
  1.121  15
  1.131  17
  1.141  20
  1.151   9
  1.161   8
  1.171   9
  1.181   6
  1.191   5
  1.201   5
  1.211  11
  1.221  11
  1.231   8
  1.241   8
  1.251  12
  1.261  14
  1.271  12
  1.281  13
  1.291  10
  1.301   4
  1.311   4
  1.321   2
  1.331   1
  1.341   3
  1.351   3
  1.361   5
  1.371   6
  1.381   4
  1.391   2
  1.401   4
  1.411   2
  1.421   3
  1.431   3
  1.441   5
  1.451   5
  1.461   4
  1.471   6
  1.481   2
  1.491   3
 1.5011   3
 1.5111   1
 1.5211   2
 1.5311   5
 1.5411   3
 1.5511   7
 1.5611   2
 1.5711   7
 1.5811   4
 1.5911   7
 1.6011   2
 1.6111   5
 1.6211   3
 1.6311   7
 1.6411   4
 1.6511   1
 1.6611   7
 1.6711  16
 1.6811  22
 1.6911  32
 1.7011  49
 1.7111  57
 1.7211  80
 1.7311 108
 1.7411  79
 1.7511  96
 1.7611 108
 1.7711  83
 1.7811  60
 1.7911  46
 1.8011  34
 1.8111  20
 1.8211  18
 1.8311  10
 1.8411   8
 1.8511   6
 1.8611   5
 1.8711   3
 1.8811   4
 1.8911   3
 1.9011   5
 1.9111   1
 1.9211   0
 1.9311   0
 1.9411   2
 1.9511   1
 1.9611   3
 1.9711   2
 1.9811   2
 1.9911   0
 2.0011   4
 2.0111   4
 2.0211   5
 2.0311   4
 2.0411   4
 2.0511   4
 2.0611  11
 2.0711   3
 2.0811   6
 2.0911   7
 2.1011   2
 2.1111   4
 2.1211   3
 2.1311   5
 2.1411   5
 2.1511   5
 2.1611   5
 2.1711   0
 2.1811   1
 2.1911   7
 2.2011   0
 2.2111  16
 2.2211   9
 2.2311  15
 2.2411  17
 2.2511  25
 2.2611  46
 2.2711  48
 2.2811  54
 2.2911  63
 2.3011  62
 2.3111  68
 2.3211  72
 2.3311  67
 2.3411  61
 2.3511  49
 2.3611  39
 2.3711  35
 2.3811  14
 2.3911  12
 2.4011  15
 2.4111   7
 2.4211   5
 2.4311   5
 2.4411   5
 2.4511   5
 2.4611   4
 2.4711  11
 2.4811   3
 2.4911   8
 2.5012  11
 2.5112   5
 2.5212   6
 2.5312   1
 2.5412   4
 2.5512   3
 2.5612   4
 2.5712   0
 2.5812   0
 2.5912   2
 2.6012   4
 2.6112   3
 2.6212   1
 2.6312   1
 2.6412   4
 2.6512   4
 2.6612   1
 2.6712   0
 2.6812   2
 2.6912   1
 2.7012   0
 2.7112   0
 2.7212   2
 2.7312   1
 2.7412   1
 2.7512   2
 2.7612   2
 2.7712   2
 2.7812   3
 2.7912   1
 2.8012   1
 2.8112   1
 2.8212   2
 2.8312   4
 2.8412   3
 2.8512   1
 2.8612   1
 2.8712   1
 2.8812   1
 2.8912   2
 2.9012   1
 2.9112   0
 2.9212   0
 2.9312   1
 2.9412   3
 2.9512   2
 2.9612   2
 2.9712   5
 2.9812   3
 2.9912   1
 3.0012   2
 3.0112   1
 3.0212   3
 3.0312   0
 3.0412   3
 3.0512   2
 3.0612   1
 3.0712   1
 3.0812   4
 3.0912   0
 3.1012   4
 3.1112   3
 3.1212   3
 3.1312   0
 3.1412   3
 3.1512   1
 3.1612   2
 3.1712   1
 3.1812   0
 3.1912   1
 3.2012   0
 3.2112   5
 3.2212   0
 3.2312   3
 3.2412   2
 3.2512   0
 3.2612   1
 3.2712   0
 3.2812   1
 3.2912   2
 3.3012   4
 3.3112   5
 3.3212   1
 3.3312   1
 3.3412   3
 3.3512   3
 3.3612   1
 3.3712   4
 3.3812   4
 3.3912   0
 3.4012   3
 3.4112   1
 3.4212   1
 3.4312   0
 3.4412   2
 3.4512   2
 3.4612   0
 3.4712   2
 3.4812   2
 3.4912   2
 3.5013   3
 3.5113   1
 3.5213   1
 3.5313   0
 3.5413   2
 3.5513   1
 3.5613   2
 3.5713   2
 3.5813   4
 3.5913   0
 3.6013   0
 3.6113   0
 3.6213   2
 3.6313   1
 3.6413   1
 3.6513   3
 3.6613   2
 3.6713   3
 3.6813   3
 3.6913   2
 3.7013   1
 3.7113   2
 3.7213   0
 3.7313   1
 3.7413   1
 3.7513   3
 3.7613   4
 3.7713   0
 3.7813   0
 3.7913   1
 3.8013   2
 3.8113   0
 3.8213   0
 3.8313   0
 3.8413   3
 3.8513   2
 3.8613   1
 3.8713   1
 3.8813   1
 3.8913   0
 3.9013   0
 3.9113   0
 3.9213   1
 3.9313   2
 3.9413   2
 3.9513   1
 3.9613   0
 3.9713   1
 3.9813   1
 3.9913   1
 4.0013   0
 4.0113   0
 4.0213   2
 4.0313   0
 4.0413   1
 4.0513   0
 4.0613   0
 4.0713   2
 4.0813   1
 4.0913   2
 4.1013   0
 4.1113   0
 4.1213   1
 4.1313   1
 4.1413   1
 4.1513   0
 4.1613   1
 4.1713   1
 4.1813   0
 4.1913   0
 4.2013   2
 4.2113   0
 4.2213   1
 4.2313   3
 4.2413   3
 4.2513   1
 4.2613   0
 4.2713   3
 4.2813   1
 4.2913   2
 4.3013   0
 4.3113   0
 4.3213   1
 4.3313   2
 4.3413   0
 4.3513   0
 4.3613   0
 4.3713   0
 4.3813   1
 4.3913   1
 4.4013   0
 4.4113   1
 4.4213   0
 4.4313   1
 4.4413   1
 4.4513   0
 4.4613   4
 4.4713   2
 4.4813   3
 4.4913   1
 4.5014   0
 4.5114   2
 4.5214   0
 4.5314   4
 4.5414   0
 4.5514   0
 4.5614   2
 4.5714   1
 4.5814   1
 4.5914   0
 4.6014   1
 4.6114   0
 4.6214   1
 4.6314   1
 4.6414   0
 4.6514   2
 4.6614   0
 4.6714   1
 4.6814   0
 4.6914   1
 4.7014   1
 4.7114   1
 4.7214   1
 4.7314   2
 4.7414   0
 4.7514   0
 4.7614   1
 4.7714   0
 4.7814   1
 4.7914   0
 4.8014   0
 4.8114   2
 4.8214   2
 4.8314   0
 4.8414   0
 4.8514   1
 4.8614   1
 4.8714   1
 4.8814   2
 4.8914   1
 4.9014   2
 4.9114   0
 4.9214   1
 4.9314   1
 4.9414   0
 4.9514   1
 4.9614   1
 4.9714   0
 4.9814   1
 4.9914   1
 5.0014   1
 5.0114   1
 5.0214   0
 5.0314   2
 5.0414   2
 5.0514   4
 5.0614   1
 5.0714   0
 5.0814   0
 5.0914   0
 5.1014   1
 5.1114   0
 5.1214   1
 5.1314   0
 5.1414   1
 5.1514   0
 5.1614   2
 5.1714   1
 5.1814   0
 5.1914   1
 5.2014   1
 5.2114   0
 5.2214   2
 5.2314   0
 5.2414   0
 5.2514   1
 5.2614   1
 5.2714   1
 5.2814   0
 5.2914   1
 5.3014   1
 5.3114   0
 5.3214   1
 5.3314   2
 5.3414   0
 5.3514   2
 5.3614   3
 5.3714   0
 5.3814   1
 5.3914   1
 5.4014   0
 5.4114   1
 5.4214   0
 5.4314   2
 5.4414   1
 5.4514   0
 5.4614   1
 5.4714   1
 5.4814   1
 5.4914   1
 5.5015   3
 5.5115   0
 5.5215   0
 5.5315   0
 5.5415   1
 5.5515   0
 5.5615   1
 5.5715   1
 5.5815   1
 5.5915   2
 5.6015   1
 5.6115   0
 5.6215   1
 5.6315   4
 5.6415   0
 5.6515   0
 5.6615   0
 5.6715   0
 5.6815   0
 5.6915   1
 5.7015   2
 5.7115   0
 5.7215   0
 5.7315   0
 5.7415   0
 5.7515   0
 5.7615   0
 5.7715   0
 5.7815   1
 5.7915   1
 5.8015   2
 5.8115   2
 5.8215   1
 5.8315   1
 5.8415   1
 5.8515   0
 5.8615   1
 5.8715   2
 5.8815   1
 5.8915   1
 5.9015   0
 5.9115   1
 5.9215   0
 5.9315   0
 5.9415   1
 5.9515   0
 5.9615   1
 5.9715   0
 5.9815   0
 5.9915   0
 6.0015   0
 6.0115   1
 6.0215   2
 6.0315   0
 6.0415   2
 6.0515   1
 6.0615   1
 6.0715   0
 6.0815   0
 6.0915   0
 6.1015   0
 6.1115   0
 6.1215   0
 6.1315   2
 6.1415   0
 6.1515   1
 6.1615   2
 6.1715   3
 6.1815   1
 6.1915   0
 6.2015   2
 6.2115   0
 6.2215   0
 6.2315   0
 6.2415   3
 6.2515   0
 6.2615   1
 6.2715   1
 6.2815   1
 6.2915   1
 6.3015   4
 6.3115   3
 6.3215   1
 6.3315   6
 6.3415   4
 6.3515   4
 6.3615   6
 6.3715   3
 6.3815   8
 6.3915   5
 6.4015   7
 6.4115   5
 6.4215   6
 6.4315   3
 6.4415   2
 6.4515   1
 6.4615   4
 6.4715   4
 6.4815   1
 6.4915   2
 6.5016   0
 6.5116   3
 6.5216   1
 6.5316   0
 6.5416   1
 6.5516   0
 6.5616   1
 6.5716   5
 6.5816   0
 6.5916   2
 6.6016   0
 6.6116   3
 6.6216   1
 6.6316   0
 6.6416   2
 6.6516   2
 6.6616   2
 6.6716   0
 6.6816   1
 6.6916   0
 6.7016   1
 6.7116   0
 6.7216   1
 6.7316   0
 6.7416   0
 6.7516   0
 6.7616   0
 6.7716   0
 6.7816   1
 6.7916   0
 6.8016   0
 6.8116   0
 6.8216   0
 6.8316   2
 6.8416   1
 6.8516   2
 6.8616   0
 6.8716   2
 6.8816   2
 6.8916   0
 6.9016   0
 6.9116   1
 6.9216   0
 6.9316   1
 6.9416   1
 6.9516   1
 6.9616   0
 6.9716   1
 6.9816   3
 6.9916   0
 7.0016   3
 7.0116   0
 7.0216   3
 7.0316   3
 7.0416   1
 7.0516   2
 7.0616   0
 7.0716   2
 7.0816   1
 7.0916   1
 7.1016   1
 7.1116   0
 7.1216   1
 7.1316   0
 7.1416   0
 7.1516   2
 7.1616   1
 7.1716   0
 7.1816   0
 7.1916   2
 7.2016   2
 7.2116   1
 7.2216   1
 7.2316   1
 7.2416   0
 7.2516   2
 7.2616   0
 7.2716   1
 7.2816   2
 7.2916   0
 7.3016   2
 7.3116   2
 7.3216   0
 7.3316   1
 7.3416   1
 7.3516   0
 7.3616   0
 7.3716   1
 7.3816   1
 7.3916   1
 7.4016   0
 7.4116   0
 7.4216   1
 7.4316   2
 7.4416   0
 7.4516   1
 7.4616   1
 7.4716   1
 7.4816   0
 7.4916   1
 7.5017   0
 7.5117   0
 7.5217   1
 7.5317   1
 7.5417   0
 7.5517   0
 7.5617   0
 7.5717   0
 7.5817   1
 7.5917   1
 7.6017   1
 7.6117   1
 7.6217   1
 7.6317   0
 7.6417   1
 7.6517   0
 7.6617   1
 7.6717   0
 7.6817   1
 7.6917   1
 7.7017   0
 7.7117   1
 7.7217   1
 7.7317   0
 7.7417   1
 7.7517   0
 7.7617   0
 7.7717   0
 7.7817   0
 7.7917   2
 7.8017   1
 7.8117   0
 7.8217   0
 7.8317   0
 7.8417   0
 7.8517   0
 7.8617   0
 7.8717   1
 7.8817   0
 7.8917   0
 7.9017   0
 7.9117   0
 7.9217   2
 7.9317   0
 7.9417   3
 7.9517   1
 7.9617   1
 7.9717   0
 7.9817   2
 7.9917   1
 8.0017   1
 8.0117   0
 8.0217   4
 8.0317   1
 8.0417   1
 8.0517   6
 8.0617   4
 8.0717   1
 8.0817   1
 8.0917   4
 8.1017   1
 8.1117   2
 8.1217   2
 8.1317   0
 8.1417   1
 8.1517   0
 8.1617   1
 8.1717   1
 8.1817   1
 8.1917   0
 8.2017   0
 8.2117   0
 8.2217   0
 8.2317   1
 8.2417   0
 8.2517   0
 8.2617   0
 8.2717   0
 8.2817   1
 8.2917   0
 8.3017   0
 8.3117   1
 8.3217   0
 8.3317   0
 8.3417   0
 8.3517   0
 8.3617   1
 8.3717   0
 8.3817   1
 8.3917   1
 8.4017   0
 8.4117   1
 8.4217   0
 8.4317   0
 8.4417   0
 8.4517   0
 8.4617   0
 8.4717   0
 8.4817   0
 8.4917   1
 8.5018   0
 8.5118   1
 8.5218   0
 8.5318   1
 8.5418   0
 8.5518   2
 8.5618   1
 8.5718   0
 8.5818   1
 8.5918   1
 8.6018   1
 8.6118   0
 8.6218   2
 8.6318   0
 8.6418   0
 8.6518   1
 8.6618   0
 8.6718   0
 8.6818   0
 8.6918   0
 8.7018   0
 8.7118   1
 8.7218   0
 8.7318   0
 8.7418   2
 8.7518   0
 8.7618   0
 8.7718   0
 8.7818   0
 8.7918   0
 8.8018   0
 8.8118   0
 8.8218   0
 8.8318   0
 8.8418   1
 8.8518   0
 8.8618   1
 8.8718   0
 8.8818   1
 8.8918   0
 8.9018   2
 8.9118   2
 8.9218   0
 8.9318   0
 8.9418   1
 8.9518   1
 8.9618   0
 8.9718   1
 8.9818   0
 8.9918   1
 9.0018   1
 9.0118   1
 9.0218   0
 9.0318   0
 9.0418   0
 9.0518   1
 9.0618   0
 9.0718   1
 9.0818   0
 9.0918   1
 9.1018   2
 9.1118   0
 9.1218   1
 9.1318   2
 9.1418   2
 9.1518   3
 9.1618   4
 9.1718   3
 9.1818   0
 9.1918   2
 9.2018   3
 9.2118   6
 9.2218   4
 9.2318   2
 9.2418   5
 9.2518   7
 9.2618   4
 9.2718   4
 9.2818   3
 9.2918   6
 9.3018   5
 9.3118   4
 9.3218   3
 9.3318   2
 9.3418   2
 9.3518   2
 9.3618   0
 9.3718   0
 9.3818   1
 9.3918   2
 9.4018   1
 9.4118   2
 9.4218   2
 9.4318   2
 9.4418   3
 9.4518   1
 9.4618   1
 9.4718   0
 9.4818   0
 9.4918   2
 9.5019   1
 9.5119   2
 9.5219   1
 9.5319   1
 9.5419   1
 9.5519   0
 9.5619   1
 9.5719   0
 9.5819   0
 9.5919   0
 9.6019   0
 9.6119   2
 9.6219   0
 9.6319   0
 9.6419   0
 9.6519   1
 9.6619   0
 9.6719   1
 9.6819   0
 9.6919   0
 9.7019   0
 9.7119   0
 9.7219   1
 9.7319   0
 9.7419   0
 9.7519   0
 9.7619   1
 9.7719   0
 9.7819   0
 9.7919   0
 9.8019   0
 9.8119   0
 9.8219   0
 9.8319   0
 9.8419   0
 9.8519   0
 9.8619   1
 9.8719   0
 9.8819   0
 9.8919   0
 9.9019   0
 9.9119   0
 9.9219   0
 9.9319   0
 9.9419   0
 9.9519   1
 9.9619   0
 9.9719   1
 9.9819   0
 9.9919   0
10.0019   2
10.0119   0
10.0219   0
10.0319   0
10.0419   1
10.0519   1
10.0619   0
10.0719   0
10.0819   0
10.0919   0
10.1019   1
10.1119   2
10.1219   2
10.1319   0
10.1419   0
10.1519   1
10.1619   2
10.1719   0
10.1819   2
10.1919   0
10.2019   1
10.2119   1
10.2219   1
10.2319   1
10.2419   1
10.2519   0
10.2619   3
10.2719   1
10.2819   3
10.2919   1
10.3019   1
10.3119   3
10.3219   1
10.3319   1
10.3419   0
10.3519   1
10.3619   0
10.3719   1
10.3819   1
10.3919   0
10.4019   0
10.4119   0
10.4219   1
10.4319   1
10.4419   0
10.4519   0
10.4619   0
10.4719   0
10.4819   1
10.4919   1
 10.502   0
 10.512   1
 10.522   1
 10.532   0
 10.542   0
 10.552   1
 10.562   0
 10.572   1
 10.582   0
 10.592   0
 10.602   0
 10.612   1
 10.622   1
 10.632   0
 10.642   1
 10.652   0
 10.662   0
 10.672   0
 10.682   1
 10.692   0
 10.702   0
 10.712   0
 10.722   0
 10.732   0
 10.742   2
 10.752   1
 10.762   4
 10.772   0
 10.782   0
 10.792   0
 10.802   0
 10.812   0
 10.822   0
 10.832   0
 10.842   0
 10.852   3
 10.862   1
 10.872   1
 10.882   0
 10.892   1
 10.902   1
 10.912   0
 10.922   1
 10.932   0
 10.942   1
 10.952   0
 10.962   1
 10.972   2
 10.982   0
 10.992   0
 11.002   0
 11.012   0
 11.022   1
 11.032   1
 11.042   2
 11.052   2
 11.062   2
 11.072   1
 11.082   1
 11.092   1
 11.102   1
 11.112   1
 11.122   1
 11.132   0
 11.142   1
 11.152   1
 11.162   0
 11.172   1
 11.182   2
 11.192   0
 11.202   0
 11.212   0
 11.222   1
 11.232   0
 11.242   2
 11.252   0
 11.262   0
 11.272   2
 11.282   0
 11.292   0
 11.302   2
 11.312   1
 11.322   1
 11.332   0
 11.342   0
 11.352   0
 11.362   2
 11.372   0
 11.382   0
 11.392   0
 11.402   1
 11.412   1
 11.422   0
 11.432   1
 11.442   0
 11.452   0
 11.462   0
 11.472   0
 11.482   0
 11.492   1
11.5021   0
11.5121   0
11.5221   1
11.5321   1
11.5421   0
11.5521   1
11.5621   0
11.5721   1
11.5821   0
11.5921   0
11.6021   1
11.6121   0
11.6221   1
11.6321   0
11.6421   1
11.6521   0
11.6621   0
11.6721   0
11.6821   1
11.6921   0
11.7021   0
11.7121   1
11.7221   0
11.7321   1
11.7421   0
11.7521   2
11.7621   1
11.7721   0
11.7821   0
11.7921   0
11.8021   1
11.8121   0
11.8221   0
11.8321   1
11.8421   0
11.8521   1
11.8621   0
11.8721   1
11.8821   0
11.8921   0
11.9021   0
11.9121   0
11.9221   1
11.9321   0
11.9421   1
11.9521   0
11.9621   0
11.9721   0
11.9821   0
11.9921   0
12.0021   1
12.0121   0
12.0221   0
12.0321   1
12.0421   1
12.0521   0
12.0621   0
12.0721   0
12.0821   1
12.0921   0
12.1021   0
12.1121   0
12.1221   1
12.1321   0
12.1421   0
12.1521   0
12.1621   1
12.1721   0
12.1821   0
12.1921   0
12.2021   0
12.2121   1
12.2221   1
12.2321   0
12.2421   0
12.2521   0
12.2621   1
12.2721   0
12.2821   0
12.2921   0
12.3021   0
12.3121   0
12.3221   0
12.3321   0
12.3421   0
12.3521   0
12.3621   3
12.3721   1
12.3821   0
12.3921   2
12.4021   0
12.4121   0
12.4221   0
12.4321   0
12.4421   0
12.4521   0
12.4621   1
12.4721   0
12.4821   1
12.4921   2
12.5022   0
12.5122   1
12.5222   0
12.5322   0
12.5422   0
12.5522   0
12.5622   0
12.5722   0
12.5822   0
12.5922   0
12.6022   0
12.6122   0
12.6222   1
12.6322   0
12.6422   1
12.6522   0
12.6622   0
12.6722   0
12.6822   0
12.6922   1
12.7022   1
12.7122   0
12.7222   0
12.7322   0
12.7422   0
12.7522   0
12.7622   0
12.7722   0
12.7822   0
12.7922   0
12.8022   0
12.8122   0
12.8222   0
12.8322   0
12.8422   0
12.8522   1
12.8622   0
12.8722   0
12.8822   0
12.8922   2
12.9022   1
12.9122   1
12.9222   0
12.9322   0
12.9422   0
12.9522   0
12.9622   0
12.9722   0
12.9822   0
12.9922   0
13.0022   0
13.0122   0
13.0222   0
13.0322   0
13.0422   1
13.0522   0
13.0622   0
13.0722   2
13.0822   0
13.0922   0
13.1022   0
13.1122   0
13.1222   0
13.1322   0
13.1422   0
13.1522   0
13.1622   0
13.1722   0
13.1822   0
13.1922   0
13.2022   0
13.2122   0
13.2222   0
13.2322   0
13.2422   0
13.2522   0
13.2622   0
13.2722   1
13.2822   2
13.2922   0
13.3022   0
13.3122   0
13.3222   1
13.3322   0
13.3422   1
13.3522   1
13.3622   0
13.3722   0
13.3822   0
13.3922   0
13.4022   1
13.4122   1
13.4222   0
13.4322   1
13.4422   0
13.4522   0
13.4622   0
13.4722   0
13.4822   1
13.4922   1
13.5023   0
13.5123   2
13.5223   0
13.5323   0
13.5423   0
13.5523   0
13.5623   1
13.5723   1
13.5823   0
13.5923   0
13.6023   0
13.6123   0
13.6223   0
13.6323   0
13.6423   0
13.6523   0
13.6623   0
13.6723   0
13.6823   0
13.6923   0
13.7023   0
13.7123   0
13.7223   0
13.7323   0
13.7423   1
13.7523   0
13.7623   0
13.7723   0
13.7823   0
13.7923   0
13.8023   0
13.8123   0
13.8223   0
13.8323   0
13.8423   0
13.8523   0
13.8623   1
13.8723   0
13.8823   0
13.8923   0
13.9023   0
13.9123   0
13.9223   1
13.9323   1
13.9423   0
13.9523   0
13.9623   0
13.9723   0
13.9823   1
13.9923   0
14.0023   0
14.0123   1
14.0223   0
14.0323   0
14.0423   1
14.0523   0
14.0623   0
14.0723   0
14.0823   0
14.0923   1
14.1023   0
14.1123   0
14.1223   1
14.1323   0
14.1423   0
14.1523   0
14.1623   0
14.1723   0
14.1823   1
14.1923   0
14.2023   0
14.2123   0
14.2223   1
14.2323   0
14.2423   0
14.2523   0
14.2623   0
14.2723   0
14.2823   0
14.2923   0
14.3023   0
14.3123   0
14.3223   0
14.3323   0
14.3423   1
14.3523   0
14.3623   0
14.3723   0
14.3823   0
14.3923   0
14.4023   1
14.4123   1
14.4223   1
14.4323   0
14.4423   0
14.4523   0
14.4623   0
14.4723   1
14.4823   0
14.4923   0
14.5024   0
14.5124   1
14.5224   0
14.5324   0
14.5424   0
14.5524   0
14.5624   0
14.5724   0
14.5824   0
14.5924   0
14.6024   0
14.6124   0
14.6224   0
14.6324   0
14.6424   0
14.6524   0
14.6624   0
14.6724   0
14.6824   0
14.6924   0
14.7024   1
14.7124   0
14.7224   0
14.7324   0
14.7424   0
14.7524   0
14.7624   0
14.7724   0
14.7824   0
14.7924   0
14.8024   0
14.8124   0
14.8224   0
14.8324   0
14.8424   0
14.8524   0
14.8624   0
14.8724   0
14.8824   0
14.8924   0
14.9024   0
14.9124   1
14.9224   0
14.9324   1
14.9424   0
14.9524   0
14.9624   0
14.9724   0
14.9824   0
14.9924   0
15.0024   0
15.0124   0
15.0224   1
15.0324   0
15.0424   1
15.0524   0
15.0624   0
15.0724   0
15.0824   0
15.0924   0
15.1024   1
15.1124   0
15.1224   0
15.1324   1
15.1424   0
15.1524   2
15.1624   0
15.1724   1
15.1824   0
15.1924   1
15.2024   1
15.2124   2
15.2224   0
15.2324   0
15.2424   0
15.2524   1
15.2624   0
15.2724   0
15.2824   0
15.2924   0
15.3024   0
15.3124   0
15.3224   0
15.3324   0
15.3424   0
15.3524   0
15.3624   0
15.3724   0
15.3824   0
15.3924   0
15.4024   0
15.4124   0
15.4224   0
15.4324   0
15.4424   0
15.4524   0
15.4624   0
15.4724   0
15.4824   0
15.4924   0
15.5025   0
15.5125   0
15.5225   0
15.5325   0
15.5425   0
15.5525   0
15.5625   0
15.5725   0
15.5825   0
15.5925   0
15.6025   0
15.6125   0
15.6225   0
15.6325   2
15.6425   0
15.6525   0
15.6625   0
15.6725   0
15.6825   0
15.6925   0
15.7025   1
15.7125   0
15.7225   0
15.7325   0
15.7425   0
15.7525   0
15.7625   0
15.7725   0
15.7825   0
15.7925   0
15.8025   0
15.8125   0
15.8225   0
15.8325   0
15.8425   0
15.8525   1
15.8625   0
15.8725   0
15.8825   0
15.8925   1
15.9025   0
15.9125   0
15.9225   0
15.9325   0
15.9425   1
15.9525   0
15.9625   0
15.9725   0
15.9825   0
15.9925   0
16.0025   0
16.0125   1
16.0225   0
16.0325   0
16.0425   0
16.0525   0
16.0625   0
16.0725   0
16.0825   0
16.0925   0
16.1025   0
16.1125   0
16.1225   0
16.1325   0
16.1425   0
16.1525   0
16.1625   0
16.1725   0
16.1825   0
16.1925   0
16.2025   0
16.2125   1
16.2225   0
16.2325   0
16.2425   0
16.2525   0
16.2625   0
16.2725   0
16.2825   0
16.2925   0
16.3025   0
16.3125   0
16.3225   0
16.3325   0
16.3425   0
16.3525   0
16.3625   0
16.3725   0
16.3825   0
16.3925   0
16.4025   0
16.4125   0
16.4225   0
16.4325   0
16.4425   0
16.4525   1
16.4625   0
16.4725   1
16.4825   0
16.4925   0
16.5026   0
16.5126   0
16.5226   0
16.5326   0
16.5426   0
16.5526   1
16.5626   0
16.5726   0
16.5826   1
16.5926   0
16.6026   0
16.6126   0
16.6226   0
16.6326   0
16.6426   0
16.6526   0
16.6626   0
16.6726   0
16.6826   0
16.6926   0
16.7026   0
16.7126   0
16.7226   0
16.7326   0
16.7426   0
16.7526   0
16.7626   0
16.7726   0
16.7826   0
16.7926   0
16.8026   0
16.8126   0
16.8226   0
16.8326   0
16.8426   0
16.8526   0
16.8626   0
16.8726   0
16.8826   1
16.8926   0
16.9026   0
16.9126   0
16.9226   0
16.9326   0
16.9426   0
16.9526   0
16.9626   0
16.9726   1
16.9826   0
16.9926   0
17.0026   0
17.0126   0
17.0226   0
17.0326   0
17.0426   0
17.0526   0
17.0626   0
17.0726   0
17.0826   0
17.0926   0
17.1026   0
17.1126   0
17.1226   0
17.1326   1
17.1426   0
17.1526   1
17.1626   1
17.1726   0
17.1826   0
17.1926   0
17.2026   0
17.2126   0
17.2226   0
17.2326   0
17.2426   0
17.2526   1
17.2626   0
17.2726   0
17.2826   0
17.2926   0
17.3026   0
17.3126   0
17.3226   0
17.3326   0
17.3426   1
17.3526   0
17.3626   0
17.3726   0
17.3826   0
17.3926   0
17.4026   0
17.4126   0
17.4226   0
17.4326   0
17.4426   0
17.4526   0
17.4626   0
17.4726   0
17.4826   0
17.4926   0
17.5027   0
17.5127   0
17.5227   0
17.5327   0
17.5427   0
17.5527   0
17.5627   0
17.5727   1
17.5827   0
17.5927   0
17.6027   0
17.6127   0
17.6227   0
17.6327   0
17.6427   1
17.6527   0
17.6627   0
17.6727   0
17.6827   0
17.6927   0
17.7027   0
17.7127   0
17.7227   0
17.7327   1
17.7427   0
17.7527   0
17.7627   0
17.7727   0
17.7827   0
17.7927   0
17.8027   0
17.8127   0
17.8227   0
17.8327   0
17.8427   0
17.8527   0
17.8627   0
17.8727   0
17.8827   0
17.8927   0
17.9027   0
17.9127   0
17.9227   0
17.9327   0
17.9427   0
17.9527   0
17.9627   0
17.9727   0
17.9827   0
17.9927   0
18.0027   0
18.0127   0
18.0227   0
18.0327   0
18.0427   0
18.0527   0
18.0627   0
18.0727   0
18.0827   0
18.0927   0
18.1027   0
18.1127   1
18.1227   0
18.1327   0
18.1427   0
18.1527   0
18.1627   0
18.1727   0
18.1827   0
18.1927   0
18.2027   0
18.2127   0
18.2227   0
18.2327   0
18.2427   0
18.2527   0
18.2627   0
18.2727   0
18.2827   0
18.2927   0
18.3027   0
18.3127   0
18.3227   0
18.3327   0
18.3427   0
18.3527   0
18.3627   0
18.3727   0
18.3827   0
18.3927   0
18.4027   0
18.4127   0
18.4227   0
18.4327   0
18.4427   0
18.4527   1
18.4627   0
18.4727   0
18.4827   0
18.4927   0
18.5028   0
18.5128   1
18.5228   0
18.5328   0
18.5428   0
18.5528   0
18.5628   0
18.5728   0
18.5828   0
18.5928   0
18.6028   0
18.6128   0
18.6228   0
18.6328   0
18.6428   0
18.6528   0
18.6628   0
18.6728   0
18.6828   0
18.6928   0
18.7028   0
18.7128   0
18.7228   1
18.7328   0
18.7428   0
18.7528   1
18.7628   0
18.7728   0
18.7828   0
18.7928   0
18.8028   0
18.8128   0
18.8228   0
18.8328   0
18.8428   1
18.8528   0
18.8628   0
18.8728   0
18.8828   0
18.8928   0
18.9028   0
18.9128   0
18.9228   0
18.9328   0
18.9428   0
18.9528   0
18.9628   0
18.9728   0
18.9828   0
18.9928   0
19.0028   0
19.0128   0
19.0228   0
19.0328   0
19.0428   0
19.0528   1
19.0628   0
19.0728   0
19.0828   0
19.0928   0
19.1028   0
19.1128   0
19.1228   0
19.1328   0
19.1428   0
19.1528   0
19.1628   0
19.1728   0
19.1828   0
19.1928   0
19.2028   0
19.2128   0
19.2228   0
19.2328   0
19.2428   0
19.2528   0
19.2628   0
19.2728   0
19.2828   0
19.2928   0
19.3028   0
19.3128   0
19.3228   0
19.3328   0
19.3428   0
19.3528   0
19.3628   0
19.3728   0
19.3828   0
19.3928   1
19.4028   0
19.4128   0
19.4228   0
19.4328   0
19.4428   0
19.4528   0
19.4628   0
19.4728   0
19.4828   0
19.4928   0
19.5029   0
19.5129   0
19.5229   0
19.5329   0
19.5429   0
19.5529   0
19.5629   0
19.5729   0
19.5829   0
19.5929   0
19.6029   0
19.6129   0
19.6229   1
