Bruker Nano GmbH Berlin, Germany
Esprit 1.9

Date: 11/30/2016 12:04:37 PM
Real time: 18969
Life time: 17736
Pulse density: 1285

Primary energy: 80
Take off angle: 18
Tilt angle: 0
Azimut angle: 45

Detector type: SuperX
Window type: no window
Detector thickness: 0.45
Si dead layer:0.08

Calibration, lin.: 10.001
Calibration, abs.: -469.147
Mn FWHM: 130.541
Fano factor: 0.113
Channels: 2047

Energy Counts
-0.4691    0
-0.4591    0
-0.4491    0
-0.4391    0
-0.4291    0
-0.4191    0
-0.4091    0
-0.3991    0
-0.3891    0
-0.3791    0
-0.3691    0
-0.3591    0
-0.3491    0
-0.3391    0
-0.3291    0
-0.3191    0
-0.3091    0
-0.2991    0
-0.2891    0
-0.2791    0
-0.2691    0
-0.2591    0
-0.2491    0
-0.2391    0
-0.2291    0
-0.2191    0
-0.2091    0
-0.1991    0
-0.1891    0
-0.1791    0
-0.1691    0
-0.1591    0
-0.1491    0
-0.1391    0
-0.1291    0
-0.1191    0
-0.1091    0
-0.0991    0
-0.0891    0
-0.0791    4
-0.0691    9
-0.0591   43
-0.0491  149
-0.0391  348
-0.0291  753
-0.0191 1373
-0.0091 2018
 0.0009 2599
 0.0109 2536
 0.0209 1979
 0.0309 1325
 0.0409  760
 0.0509  338
 0.0609  127
 0.0709   29
 0.0809    4
 0.0909    0
 0.1009    0
 0.1109    0
 0.1209    0
 0.1309   27
 0.1409   34
 0.1509   29
 0.1609   31
 0.1709   36
 0.1809   34
 0.1909   46
 0.2009   68
 0.2109  101
 0.2209  183
 0.2309  336
 0.2409  499
 0.2509  747
 0.2609 1001
 0.2709 1117
 0.2809 1031
 0.2909  913
 0.3009  694
 0.3109  464
 0.3209  241
 0.3309  131
 0.3409   86
 0.3509   64
 0.3609   57
 0.3709   85
 0.3809   81
 0.3909   91
 0.4009   99
 0.4109   70
 0.4209   77
 0.4309   56
 0.4409   52
 0.4509   68
 0.4609   88
 0.4709  125
 0.4809  176
 0.4909  236
  0.501  360
  0.511  427
  0.521  474
  0.531  536
  0.541  430
  0.551  356
  0.561  257
  0.571  152
  0.581   93
  0.591   50
  0.601   27
  0.611   14
  0.621   10
  0.631   11
  0.641    7
  0.651   15
  0.661   10
  0.671   16
  0.681   16
  0.691   14
  0.701   17
  0.711   14
  0.721   26
  0.731   23
  0.741   24
  0.751   17
  0.761   12
  0.771   18
  0.781   14
  0.791   19
  0.801   12
  0.811   17
  0.821   11
  0.831    6
  0.841    9
  0.851   13
  0.861   10
  0.871    9
  0.881   14
  0.891   15
  0.901    7
  0.911   10
  0.921   23
  0.931   11
  0.941    7
  0.951   20
  0.961   20
  0.971   20
  0.981   22
  0.991   21
  1.001   38
  1.011   51
  1.021   69
  1.031   64
  1.041   84
  1.051   79
  1.061   71
  1.071   87
  1.081   72
  1.091   71
  1.101   68
  1.111   67
  1.121   64
  1.131   48
  1.141   54
  1.151   30
  1.161   35
  1.171   29
  1.181   23
  1.191   16
  1.201   17
  1.211   21
  1.221   20
  1.231   18
  1.241   22
  1.251   22
  1.261   21
  1.271   23
  1.281   24
  1.291   19
  1.301   15
  1.311   14
  1.321   15
  1.331   11
  1.341    9
  1.351   10
  1.361    8
  1.371   15
  1.381   11
  1.391    5
  1.401   11
  1.411   11
  1.421    7
  1.431    8
  1.441   17
  1.451    5
  1.461   10
  1.471   16
  1.481    6
  1.491   10
 1.5011   14
 1.5111   13
 1.5211    9
 1.5311   15
 1.5411    5
 1.5511    9
 1.5611   10
 1.5711    6
 1.5811    9
 1.5911   11
 1.6011    9
 1.6111   11
 1.6211   15
 1.6311    8
 1.6411   17
 1.6511   20
 1.6611   29
 1.6711   33
 1.6811   69
 1.6911   82
 1.7011  116
 1.7111  183
 1.7211  247
 1.7311  266
 1.7411  268
 1.7511  277
 1.7611  265
 1.7711  224
 1.7811  158
 1.7911  150
 1.8011  104
 1.8111   69
 1.8211   50
 1.8311   36
 1.8411   26
 1.8511   29
 1.8611   11
 1.8711   16
 1.8811   12
 1.8911   12
 1.9011   14
 1.9111   13
 1.9211    5
 1.9311    6
 1.9411    7
 1.9511    6
 1.9611    4
 1.9711    9
 1.9811    8
 1.9911   10
 2.0011   15
 2.0111   11
 2.0211   10
 2.0311   14
 2.0411   21
 2.0511   12
 2.0611   13
 2.0711   21
 2.0811   24
 2.0911   25
 2.1011   11
 2.1111    9
 2.1211   20
 2.1311   18
 2.1411   12
 2.1511   16
 2.1611   21
 2.1711   11
 2.1811   11
 2.1911   13
 2.2011   21
 2.2111   10
 2.2211   19
 2.2311   23
 2.2411   34
 2.2511   40
 2.2611   72
 2.2711   78
 2.2811  116
 2.2911  131
 2.3011  137
 2.3111  145
 2.3211  163
 2.3311  147
 2.3411  103
 2.3511  112
 2.3611   85
 2.3711   61
 2.3811   38
 2.3911   26
 2.4011   15
 2.4111    8
 2.4211   16
 2.4311   13
 2.4411   12
 2.4511   12
 2.4611   13
 2.4711   16
 2.4811   12
 2.4911   14
 2.5012   11
 2.5112   12
 2.5212   16
 2.5312   12
 2.5412    5
 2.5512    2
 2.5612    8
 2.5712    9
 2.5812   17
 2.5912    5
 2.6012   14
 2.6112   12
 2.6212   17
 2.6312   10
 2.6412   12
 2.6512   18
 2.6612    7
 2.6712    7
 2.6812   12
 2.6912   11
 2.7012   10
 2.7112    5
 2.7212    7
 2.7312    5
 2.7412    5
 2.7512    7
 2.7612    4
 2.7712    6
 2.7812    3
 2.7912    7
 2.8012    4
 2.8112    5
 2.8212    9
 2.8312    7
 2.8412    2
 2.8512    3
 2.8612    7
 2.8712    4
 2.8812    4
 2.8912    5
 2.9012    4
 2.9112    2
 2.9212    4
 2.9312    3
 2.9412    2
 2.9512    3
 2.9612    3
 2.9712    2
 2.9812    3
 2.9912    4
 3.0012    4
 3.0112    6
 3.0212    6
 3.0312    3
 3.0412    3
 3.0512    6
 3.0612    4
 3.0712    6
 3.0812    5
 3.0912    3
 3.1012    3
 3.1112    1
 3.1212    3
 3.1312    1
 3.1412    3
 3.1512    2
 3.1612    4
 3.1712    5
 3.1812    5
 3.1912    3
 3.2012    2
 3.2112    3
 3.2212    4
 3.2312    6
 3.2412    4
 3.2512    6
 3.2612    4
 3.2712    7
 3.2812    4
 3.2912    5
 3.3012    7
 3.3112    4
 3.3212    7
 3.3312   10
 3.3412    3
 3.3512    2
 3.3612    3
 3.3712    6
 3.3812    5
 3.3912    1
 3.4012    5
 3.4112    2
 3.4212    5
 3.4312    4
 3.4412    2
 3.4512    2
 3.4612    2
 3.4712    2
 3.4812    4
 3.4912    5
 3.5013    2
 3.5113    3
 3.5213    1
 3.5313    1
 3.5413    7
 3.5513    3
 3.5613    4
 3.5713    2
 3.5813    6
 3.5913    3
 3.6013    4
 3.6113    2
 3.6213    5
 3.6313    4
 3.6413    3
 3.6513    4
 3.6613    3
 3.6713    3
 3.6813    3
 3.6913    4
 3.7013    4
 3.7113    3
 3.7213    3
 3.7313    3
 3.7413    4
 3.7513    2
 3.7613    5
 3.7713    3
 3.7813    0
 3.7913    1
 3.8013    3
 3.8113    4
 3.8213    4
 3.8313    4
 3.8413    2
 3.8513    3
 3.8613    6
 3.8713    7
 3.8813    6
 3.8913    2
 3.9013    1
 3.9113    1
 3.9213    3
 3.9313    1
 3.9413    6
 3.9513    2
 3.9613    3
 3.9713    2
 3.9813    4
 3.9913    3
 4.0013    5
 4.0113    2
 4.0213    1
 4.0313    4
 4.0413    3
 4.0513    7
 4.0613    7
 4.0713    4
 4.0813    3
 4.0913    4
 4.1013    7
 4.1113    1
 4.1213    6
 4.1313    2
 4.1413    7
 4.1513    1
 4.1613    5
 4.1713    4
 4.1813    3
 4.1913    3
 4.2013    5
 4.2113    3
 4.2213    6
 4.2313    6
 4.2413    1
 4.2513    4
 4.2613    6
 4.2713    5
 4.2813    2
 4.2913    1
 4.3013    0
 4.3113    1
 4.3213    4
 4.3313    3
 4.3413    0
 4.3513    1
 4.3613    1
 4.3713    3
 4.3813    3
 4.3913    2
 4.4013    1
 4.4113    2
 4.4213    1
 4.4313    2
 4.4413    5
 4.4513    2
 4.4613    0
 4.4713    2
 4.4813    7
 4.4913    3
 4.5014    3
 4.5114    2
 4.5214    4
 4.5314    2
 4.5414    6
 4.5514    3
 4.5614    4
 4.5714    0
 4.5814    2
 4.5914    1
 4.6014    2
 4.6114    0
 4.6214    2
 4.6314    3
 4.6414    1
 4.6514    4
 4.6614    5
 4.6714    3
 4.6814    2
 4.6914    0
 4.7014    1
 4.7114    2
 4.7214    2
 4.7314    0
 4.7414    1
 4.7514    2
 4.7614    3
 4.7714    5
 4.7814    5
 4.7914    3
 4.8014    2
 4.8114    3
 4.8214    5
 4.8314    2
 4.8414    3
 4.8514    5
 4.8614    3
 4.8714    5
 4.8814    3
 4.8914    3
 4.9014    2
 4.9114    0
 4.9214    3
 4.9314    2
 4.9414    2
 4.9514    5
 4.9614    1
 4.9714    2
 4.9814    0
 4.9914    2
 5.0014    3
 5.0114    4
 5.0214    4
 5.0314    3
 5.0414    2
 5.0514    1
 5.0614    2
 5.0714    1
 5.0814    1
 5.0914    3
 5.1014    4
 5.1114    2
 5.1214    3
 5.1314    5
 5.1414    2
 5.1514    1
 5.1614    5
 5.1714    1
 5.1814    2
 5.1914    1
 5.2014    2
 5.2114    3
 5.2214    4
 5.2314    3
 5.2414    1
 5.2514    2
 5.2614    1
 5.2714    3
 5.2814    3
 5.2914    4
 5.3014    3
 5.3114    3
 5.3214    1
 5.3314    1
 5.3414    1
 5.3514    2
 5.3614    2
 5.3714    1
 5.3814    3
 5.3914    2
 5.4014    4
 5.4114    3
 5.4214    4
 5.4314    0
 5.4414    2
 5.4514    3
 5.4614    3
 5.4714    2
 5.4814    1
 5.4914    3
 5.5015    5
 5.5115    2
 5.5215    5
 5.5315    4
 5.5415    4
 5.5515    2
 5.5615    2
 5.5715    0
 5.5815    2
 5.5915    0
 5.6015    0
 5.6115    1
 5.6215    3
 5.6315    1
 5.6415    1
 5.6515    3
 5.6615    3
 5.6715    3
 5.6815    2
 5.6915    0
 5.7015    5
 5.7115    0
 5.7215    3
 5.7315    1
 5.7415    2
 5.7515    2
 5.7615    1
 5.7715    5
 5.7815    2
 5.7915    2
 5.8015    4
 5.8115    1
 5.8215    3
 5.8315    3
 5.8415    1
 5.8515    4
 5.8615    3
 5.8715    2
 5.8815    4
 5.8915    5
 5.9015    5
 5.9115    3
 5.9215    2
 5.9315    2
 5.9415    2
 5.9515    0
 5.9615    3
 5.9715    1
 5.9815    1
 5.9915    3
 6.0015    0
 6.0115    5
 6.0215    3
 6.0315    1
 6.0415    2
 6.0515    1
 6.0615    1
 6.0715    3
 6.0815    5
 6.0915    1
 6.1015    4
 6.1115    1
 6.1215    0
 6.1315    1
 6.1415    0
 6.1515    3
 6.1615    0
 6.1715    2
 6.1815    1
 6.1915    1
 6.2015    0
 6.2115    4
 6.2215    3
 6.2315    3
 6.2415    4
 6.2515    3
 6.2615    1
 6.2715    0
 6.2815    5
 6.2915    3
 6.3015    5
 6.3115    3
 6.3215    4
 6.3315    4
 6.3415    4
 6.3515    4
 6.3615    6
 6.3715    9
 6.3815    9
 6.3915    9
 6.4015    6
 6.4115   12
 6.4215   11
 6.4315    5
 6.4415    4
 6.4515    3
 6.4615    3
 6.4715    5
 6.4815    1
 6.4915    8
 6.5016    4
 6.5116    3
 6.5216    4
 6.5316    1
 6.5416    3
 6.5516    1
 6.5616    2
 6.5716    2
 6.5816    5
 6.5916    0
 6.6016    3
 6.6116    0
 6.6216    3
 6.6316    3
 6.6416    1
 6.6516    2
 6.6616    3
 6.6716    2
 6.6816    2
 6.6916    4
 6.7016    1
 6.7116    3
 6.7216    2
 6.7316    1
 6.7416    1
 6.7516    4
 6.7616    2
 6.7716    3
 6.7816    3
 6.7916    0
 6.8016    2
 6.8116    1
 6.8216    5
 6.8316    3
 6.8416    3
 6.8516    1
 6.8616    2
 6.8716    4
 6.8816    4
 6.8916    3
 6.9016    3
 6.9116    3
 6.9216    0
 6.9316    4
 6.9416    3
 6.9516    7
 6.9616    5
 6.9716    6
 6.9816    3
 6.9916    3
 7.0016    4
 7.0116    2
 7.0216    2
 7.0316    3
 7.0416    0
 7.0516    3
 7.0616    2
 7.0716    0
 7.0816    4
 7.0916    3
 7.1016    1
 7.1116    0
 7.1216    1
 7.1316    3
 7.1416    0
 7.1516    3
 7.1616    1
 7.1716    2
 7.1816    0
 7.1916    1
 7.2016    3
 7.2116    2
 7.2216    2
 7.2316    2
 7.2416    4
 7.2516    1
 7.2616    0
 7.2716    4
 7.2816    0
 7.2916    0
 7.3016    1
 7.3116    2
 7.3216    3
 7.3316    3
 7.3416    5
 7.3516    4
 7.3616    2
 7.3716    2
 7.3816    1
 7.3916    1
 7.4016    2
 7.4116    2
 7.4216    2
 7.4316    5
 7.4416    2
 7.4516    3
 7.4616    2
 7.4716    5
 7.4816    4
 7.4916    4
 7.5017    1
 7.5117    3
 7.5217    3
 7.5317    0
 7.5417    5
 7.5517    2
 7.5617    2
 7.5717    4
 7.5817    3
 7.5917    1
 7.6017    1
 7.6117    4
 7.6217    2
 7.6317    1
 7.6417    2
 7.6517    2
 7.6617    0
 7.6717    0
 7.6817    1
 7.6917    3
 7.7017    2
 7.7117    4
 7.7217    1
 7.7317    4
 7.7417    0
 7.7517    2
 7.7617    4
 7.7717    3
 7.7817    2
 7.7917    1
 7.8017    2
 7.8117    5
 7.8217    2
 7.8317    5
 7.8417    3
 7.8517    2
 7.8617    0
 7.8717    4
 7.8817    3
 7.8917    2
 7.9017    2
 7.9117    5
 7.9217    0
 7.9317    3
 7.9417    4
 7.9517    4
 7.9617    4
 7.9717    3
 7.9817    3
 7.9917    4
 8.0017    4
 8.0117    7
 8.0217    9
 8.0317    8
 8.0417   10
 8.0517    2
 8.0617    7
 8.0717    9
 8.0817    6
 8.0917    7
 8.1017    6
 8.1117    6
 8.1217    3
 8.1317    4
 8.1417    2
 8.1517    1
 8.1617    3
 8.1717    6
 8.1817    6
 8.1917    2
 8.2017    2
 8.2117    0
 8.2217    1
 8.2317    2
 8.2417    0
 8.2517    0
 8.2617    0
 8.2717    2
 8.2817    0
 8.2917    1
 8.3017    3
 8.3117    2
 8.3217    1
 8.3317    2
 8.3417    3
 8.3517    2
 8.3617    2
 8.3717    2
 8.3817    5
 8.3917    2
 8.4017    0
 8.4117    2
 8.4217    1
 8.4317    1
 8.4417    1
 8.4517    1
 8.4617    2
 8.4717    1
 8.4817    2
 8.4917    1
 8.5018    3
 8.5118    1
 8.5218    1
 8.5318    2
 8.5418    2
 8.5518    2
 8.5618    4
 8.5718    2
 8.5818    2
 8.5918    2
 8.6018    2
 8.6118    2
 8.6218    2
 8.6318    0
 8.6418    2
 8.6518    2
 8.6618    2
 8.6718    2
 8.6818    2
 8.6918    1
 8.7018    2
 8.7118    3
 8.7218    2
 8.7318    0
 8.7418    1
 8.7518    3
 8.7618    2
 8.7718    2
 8.7818    2
 8.7918    3
 8.8018    5
 8.8118    2
 8.8218    3
 8.8318    0
 8.8418    2
 8.8518    4
 8.8618    0
 8.8718    2
 8.8818    4
 8.8918    0
 8.9018    2
 8.9118    4
 8.9218    3
 8.9318    4
 8.9418    2
 8.9518    4
 8.9618    3
 8.9718    1
 8.9818    3
 8.9918    3
 9.0018    4
 9.0118    1
 9.0218    1
 9.0318    2
 9.0418    3
 9.0518    0
 9.0618    0
 9.0718    6
 9.0818    3
 9.0918    1
 9.1018    5
 9.1118    7
 9.1218    5
 9.1318   10
 9.1418    9
 9.1518    6
 9.1618   10
 9.1718   11
 9.1818   10
 9.1918   18
 9.2018   15
 9.2118   29
 9.2218   17
 9.2318   19
 9.2418   20
 9.2518   20
 9.2618   15
 9.2718   16
 9.2818   12
 9.2918   19
 9.3018   10
 9.3118   15
 9.3218    7
 9.3318   14
 9.3418   10
 9.3518    7
 9.3618   12
 9.3718    4
 9.3818    7
 9.3918    7
 9.4018    6
 9.4118    5
 9.4218    2
 9.4318    7
 9.4418    3
 9.4518    6
 9.4618    6
 9.4718    5
 9.4818    5
 9.4918    7
 9.5019    3
 9.5119    2
 9.5219    4
 9.5319    3
 9.5419    3
 9.5519    2
 9.5619    3
 9.5719    5
 9.5819    3
 9.5919    4
 9.6019    1
 9.6119    2
 9.6219    2
 9.6319    1
 9.6419    0
 9.6519    7
 9.6619    2
 9.6719    0
 9.6819    2
 9.6919    1
 9.7019    0
 9.7119    2
 9.7219    0
 9.7319    2
 9.7419    2
 9.7519    3
 9.7619    1
 9.7719    4
 9.7819    3
 9.7919    0
 9.8019    1
 9.8119    0
 9.8219    0
 9.8319    0
 9.8419    2
 9.8519    2
 9.8619    3
 9.8719    1
 9.8819    0
 9.8919    0
 9.9019    0
 9.9119    1
 9.9219    3
 9.9319    2
 9.9419    2
 9.9519    1
 9.9619    0
 9.9719    1
 9.9819    1
 9.9919    0
10.0019    0
10.0119    2
10.0219    1
10.0319    1
10.0419    0
10.0519    1
10.0619    4
10.0719    2
10.0819    0
10.0919    2
10.1019    1
10.1119    2
10.1219    2
10.1319    3
10.1419    0
10.1519    2
10.1619    1
10.1719    1
10.1819    4
10.1919    2
10.2019    0
10.2119    6
10.2219    3
10.2319    3
10.2419    2
10.2519    2
10.2619    8
10.2719    4
10.2819   11
10.2919    4
10.3019    4
10.3119    3
10.3219    2
10.3319    2
10.3419    2
10.3519    0
10.3619    3
10.3719    1
10.3819    2
10.3919    1
10.4019    1
10.4119    2
10.4219    2
10.4319    1
10.4419    1
10.4519    0
10.4619    0
10.4719    0
10.4819    3
10.4919    1
 10.502    1
 10.512    3
 10.522    4
 10.532    3
 10.542    1
 10.552    1
 10.562    2
 10.572    2
 10.582    0
 10.592    0
 10.602    0
 10.612    2
 10.622    0
 10.632    1
 10.642    2
 10.652    1
 10.662    2
 10.672    2
 10.682    2
 10.692    0
 10.702    1
 10.712    0
 10.722    1
 10.732    3
 10.742    0
 10.752    1
 10.762    2
 10.772    3
 10.782    0
 10.792    1
 10.802    1
 10.812    1
 10.822    0
 10.832    3
 10.842    0
 10.852    2
 10.862    2
 10.872    0
 10.882    0
 10.892    0
 10.902    1
 10.912    2
 10.922    0
 10.932    2
 10.942    2
 10.952    3
 10.962    1
 10.972    2
 10.982    4
 10.992    2
 11.002    1
 11.012    0
 11.022    2
 11.032    3
 11.042    3
 11.052    1
 11.062    3
 11.072    2
 11.082    1
 11.092    2
 11.102    3
 11.112    3
 11.122    3
 11.132    3
 11.142    3
 11.152    2
 11.162    1
 11.172    1
 11.182    0
 11.192    1
 11.202    3
 11.212    1
 11.222    2
 11.232    2
 11.242    1
 11.252    5
 11.262    2
 11.272    2
 11.282    2
 11.292    3
 11.302    1
 11.312    0
 11.322    0
 11.332    3
 11.342    0
 11.352    0
 11.362    0
 11.372    3
 11.382    3
 11.392    1
 11.402    0
 11.412    2
 11.422    0
 11.432    0
 11.442    0
 11.452    0
 11.462    1
 11.472    2
 11.482    0
 11.492    0
11.5021    3
11.5121    1
11.5221    1
11.5321    0
11.5421    1
11.5521    0
11.5621    1
11.5721    0
11.5821    1
11.5921    2
11.6021    1
11.6121    1
11.6221    0
11.6321    0
11.6421    1
11.6521    1
11.6621    1
11.6721    0
11.6821    0
11.6921    0
11.7021    0
11.7121    2
11.7221    0
11.7321    0
11.7421    0
11.7521    1
11.7621    0
11.7721    1
11.7821    0
11.7921    2
11.8021    1
11.8121    0
11.8221    0
11.8321    1
11.8421    3
11.8521    2
11.8621    2
11.8721    0
11.8821    1
11.8921    0
11.9021    1
11.9121    1
11.9221    2
11.9321    1
11.9421    2
11.9521    2
11.9621    1
11.9721    0
11.9821    1
11.9921    1
12.0021    1
12.0121    2
12.0221    1
12.0321    0
12.0421    0
12.0521    0
12.0621    3
12.0721    2
12.0821    3
12.0921    3
12.1021    4
12.1121    0
12.1221    2
12.1321    0
12.1421    1
12.1521    0
12.1621    2
12.1721    0
12.1821    0
12.1921    1
12.2021    1
12.2121    2
12.2221    1
12.2321    2
12.2421    0
12.2521    2
12.2621    1
12.2721    1
12.2821    0
12.2921    0
12.3021    0
12.3121    1
12.3221    1
12.3321    2
12.3421    1
12.3521    1
12.3621    1
12.3721    2
12.3821    0
12.3921    0
12.4021    0
12.4121    1
12.4221    0
12.4321    1
12.4421    0
12.4521    0
12.4621    4
12.4721    0
12.4821    1
12.4921    1
12.5022    0
12.5122    3
12.5222    0
12.5322    0
12.5422    1
12.5522    1
12.5622    0
12.5722    0
12.5822    1
12.5922    2
12.6022    1
12.6122    0
12.6222    2
12.6322    2
12.6422    1
12.6522    1
12.6622    1
12.6722    1
12.6822    0
12.6922    0
12.7022    2
12.7122    1
12.7222    0
12.7322    0
12.7422    0
12.7522    0
12.7622    0
12.7722    2
12.7822    1
12.7922    1
12.8022    1
12.8122    2
12.8222    1
12.8322    1
12.8422    0
12.8522    1
12.8622    0
12.8722    0
12.8822    3
12.8922    0
12.9022    1
12.9122    1
12.9222    1
12.9322    0
12.9422    2
12.9522    1
12.9622    0
12.9722    2
12.9822    3
12.9922    3
13.0022    0
13.0122    2
13.0222    2
13.0322    1
13.0422    3
13.0522    0
13.0622    1
13.0722    0
13.0822    0
13.0922    0
13.1022    2
13.1122    0
13.1222    0
13.1322    2
13.1422    0
13.1522    0
13.1622    0
13.1722    1
13.1822    0
13.1922    0
13.2022    3
13.2122    0
13.2222    1
13.2322    1
13.2422    1
13.2522    1
13.2622    2
13.2722    1
13.2822    0
13.2922    3
13.3022    0
13.3122    1
13.3222    0
13.3322    0
13.3422    0
13.3522    1
13.3622    2
13.3722    1
13.3822    1
13.3922    0
13.4022    0
13.4122    1
13.4222    1
13.4322    2
13.4422    0
13.4522    1
13.4622    1
13.4722    2
13.4822    0
13.4922    1
13.5023    0
13.5123    0
13.5223    0
13.5323    0
13.5423    0
13.5523    0
13.5623    1
13.5723    1
13.5823    1
13.5923    3
13.6023    1
13.6123    1
13.6223    1
13.6323    1
13.6423    0
13.6523    0
13.6623    0
13.6723    0
13.6823    1
13.6923    0
13.7023    1
13.7123    0
13.7223    0
13.7323    1
13.7423    0
13.7523    1
13.7623    2
13.7723    0
13.7823    1
13.7923    0
13.8023    0
13.8123    0
13.8223    0
13.8323    0
13.8423    1
13.8523    0
13.8623    2
13.8723    0
13.8823    0
13.8923    2
13.9023    0
13.9123    0
13.9223    1
13.9323    1
13.9423    0
13.9523    0
13.9623    1
13.9723    0
13.9823    0
13.9923    1
14.0023    0
14.0123    0
14.0223    0
14.0323    1
14.0423    2
14.0523    0
14.0623    0
14.0723    1
14.0823    1
14.0923    1
14.1023    1
14.1123    0
14.1223    0
14.1323    1
14.1423    0
14.1523    1
14.1623    1
14.1723    1
14.1823    1
14.1923    0
14.2023    0
14.2123    0
14.2223    0
14.2323    0
14.2423    2
14.2523    0
14.2623    1
14.2723    0
14.2823    1
14.2923    0
14.3023    0
14.3123    1
14.3223    0
14.3323    0
14.3423    0
14.3523    0
14.3623    0
14.3723    1
14.3823    0
14.3923    3
14.4023    0
14.4123    0
14.4223    1
14.4323    1
14.4423    1
14.4523    1
14.4623    0
14.4723    0
14.4823    0
14.4923    1
14.5024    0
14.5124    0
14.5224    0
14.5324    0
14.5424    0
14.5524    0
14.5624    1
14.5724    0
14.5824    0
14.5924    0
14.6024    0
14.6124    0
14.6224    1
14.6324    0
14.6424    0
14.6524    0
14.6624    0
14.6724    0
14.6824    0
14.6924    0
14.7024    3
14.7124    0
14.7224    0
14.7324    0
14.7424    0
14.7524    1
14.7624    0
14.7724    0
14.7824    1
14.7924    1
14.8024    1
14.8124    0
14.8224    2
14.8324    0
14.8424    1
14.8524    0
14.8624    2
14.8724    0
14.8824    1
14.8924    0
14.9024    0
14.9124    0
14.9224    0
14.9324    0
14.9424    2
14.9524    0
14.9624    1
14.9724    1
14.9824    1
14.9924    0
15.0024    0
15.0124    0
15.0224    0
15.0324    1
15.0424    1
15.0524    1
15.0624    2
15.0724    0
15.0824    1
15.0924    1
15.1024    1
15.1124    1
15.1224    0
15.1324    0
15.1424    1
15.1524    1
15.1624    1
15.1724    0
15.1824    0
15.1924    1
15.2024    1
15.2124    0
15.2224    0
15.2324    0
15.2424    1
15.2524    1
15.2624    1
15.2724    0
15.2824    2
15.2924    0
15.3024    0
15.3124    0
15.3224    0
15.3324    2
15.3424    0
15.3524    0
15.3624    0
15.3724    1
15.3824    0
15.3924    0
15.4024    0
15.4124    0
15.4224    0
15.4324    1
15.4424    1
15.4524    1
15.4624    0
15.4724    0
15.4824    0
15.4924    0
15.5025    1
15.5125    2
15.5225    0
15.5325    0
15.5425    0
15.5525    0
15.5625    0
15.5725    1
15.5825    0
15.5925    0
15.6025    1
15.6125    1
15.6225    2
15.6325    1
15.6425    0
15.6525    1
15.6625    1
15.6725    1
15.6825    0
15.6925    3
15.7025    0
15.7125    0
15.7225    0
15.7325    0
15.7425    1
15.7525    1
15.7625    1
15.7725    1
15.7825    0
15.7925    0
15.8025    1
15.8125    1
15.8225    0
15.8325    0
15.8425    0
15.8525    0
15.8625    1
15.8725    2
15.8825    0
15.8925    0
15.9025    0
15.9125    1
15.9225    0
15.9325    0
15.9425    0
15.9525    0
15.9625    0
15.9725    0
15.9825    2
15.9925    0
16.0025    0
16.0125    0
16.0225    0
16.0325    0
16.0425    0
16.0525    0
16.0625    0
16.0725    0
16.0825    0
16.0925    2
16.1025    0
16.1125    1
16.1225    0
16.1325    0
16.1425    0
16.1525    0
16.1625    0
16.1725    1
16.1825    1
16.1925    1
16.2025    0
16.2125    0
16.2225    2
16.2325    0
16.2425    1
16.2525    1
16.2625    0
16.2725    0
16.2825    0
16.2925    1
16.3025    0
16.3125    0
16.3225    0
16.3325    0
16.3425    0
16.3525    0
16.3625    1
16.3725    1
16.3825    0
16.3925    0
16.4025    0
16.4125    0
16.4225    1
16.4325    0
16.4425    0
16.4525    0
16.4625    2
16.4725    1
16.4825    0
16.4925    0
16.5026    0
16.5126    0
16.5226    0
16.5326    1
16.5426    0
16.5526    1
16.5626    1
16.5726    0
16.5826    0
16.5926    0
16.6026    0
16.6126    0
16.6226    0
16.6326    0
16.6426    0
16.6526    0
16.6626    0
16.6726    0
16.6826    1
16.6926    1
16.7026    0
16.7126    2
16.7226    0
16.7326    0
16.7426    0
16.7526    1
16.7626    0
16.7726    0
16.7826    0
16.7926    0
16.8026    0
16.8126    0
16.8226    0
16.8326    0
16.8426    1
16.8526    0
16.8626    0
16.8726    0
16.8826    1
16.8926    0
16.9026    0
16.9126    0
16.9226    0
16.9326    0
16.9426    1
16.9526    0
16.9626    0
16.9726    1
16.9826    0
16.9926    0
17.0026    0
17.0126    0
17.0226    0
17.0326    0
17.0426    0
17.0526    0
17.0626    0
17.0726    1
17.0826    0
17.0926    0
17.1026    0
17.1126    0
17.1226    0
17.1326    0
17.1426    1
17.1526    0
17.1626    1
17.1726    0
17.1826    1
17.1926    0
17.2026    0
17.2126    1
17.2226    1
17.2326    0
17.2426    0
17.2526    1
17.2626    0
17.2726    0
17.2826    1
17.2926    0
17.3026    1
17.3126    0
17.3226    0
17.3326    0
17.3426    0
17.3526    0
17.3626    2
17.3726    0
17.3826    0
17.3926    1
17.4026    1
17.4126    0
17.4226    0
17.4326    0
17.4426    0
17.4526    0
17.4626    1
17.4726    0
17.4826    1
17.4926    0
17.5027    1
17.5127    0
17.5227    0
17.5327    0
17.5427    0
17.5527    1
17.5627    1
17.5727    0
17.5827    0
17.5927    0
17.6027    0
17.6127    1
17.6227    1
17.6327    1
17.6427    0
17.6527    0
17.6627    0
17.6727    0
17.6827    1
17.6927    0
17.7027    0
17.7127    1
17.7227    1
17.7327    1
17.7427    0
17.7527    0
17.7627    0
17.7727    0
17.7827    0
17.7927    0
17.8027    0
17.8127    1
17.8227    0
17.8327    1
17.8427    0
17.8527    0
17.8627    0
17.8727    0
17.8827    0
17.8927    1
17.9027    0
17.9127    0
17.9227    0
17.9327    0
17.9427    0
17.9527    0
17.9627    0
17.9727    0
17.9827    0
17.9927    0
18.0027    1
18.0127    0
18.0227    0
18.0327    2
18.0427    0
18.0527    0
18.0627    0
18.0727    0
18.0827    0
18.0927    0
18.1027    0
18.1127    0
18.1227    0
18.1327    0
18.1427    0
18.1527    0
18.1627    0
18.1727    0
18.1827    1
18.1927    0
18.2027    0
18.2127    0
18.2227    0
18.2327    1
18.2427    0
18.2527    0
18.2627    1
18.2727    1
18.2827    1
18.2927    0
18.3027    1
18.3127    0
18.3227    0
18.3327    0
18.3427    1
18.3527    0
18.3627    0
18.3727    0
18.3827    0
18.3927    0
18.4027    0
18.4127    0
18.4227    1
18.4327    0
18.4427    0
18.4527    0
18.4627    0
18.4727    0
18.4827    0
18.4927    0
18.5028    1
18.5128    0
18.5228    0
18.5328    0
18.5428    0
18.5528    1
18.5628    0
18.5728    2
18.5828    0
18.5928    0
18.6028    0
18.6128    1
18.6228    1
18.6328    0
18.6428    0
18.6528    0
18.6628    0
18.6728    0
18.6828    0
18.6928    0
18.7028    0
18.7128    1
18.7228    0
18.7328    0
18.7428    2
18.7528    1
18.7628    1
18.7728    0
18.7828    0
18.7928    0
18.8028    1
18.8128    0
18.8228    0
18.8328    1
18.8428    0
18.8528    0
18.8628    0
18.8728    0
18.8828    0
18.8928    1
18.9028    0
18.9128    1
18.9228    0
18.9328    1
18.9428    0
18.9528    2
18.9628    0
18.9728    0
18.9828    0
18.9928    0
19.0028    0
19.0128    0
19.0228    0
19.0328    0
19.0428    0
19.0528    0
19.0628    0
19.0728    0
19.0828    0
19.0928    0
19.1028    0
19.1128    0
19.1228    0
19.1328    0
19.1428    0
19.1528    0
19.1628    0
19.1728    1
19.1828    0
19.1928    0
19.2028    0
19.2128    0
19.2228    1
19.2328    1
19.2428    1
19.2528    0
19.2628    0
19.2728    0
19.2828    0
19.2928    0
19.3028    0
19.3128    0
19.3228    0
19.3328    1
19.3428    0
19.3528    0
19.3628    0
19.3728    0
19.3828    0
19.3928    0
19.4028    1
19.4128    0
19.4228    0
19.4328    0
19.4428    0
19.4528    0
19.4628    0
19.4728    0
19.4828    0
19.4928    0
19.5029    1
19.5129    0
19.5229    0
19.5329    0
19.5429    0
19.5529    0
19.5629    0
19.5729    1
19.5829    0
19.5929    0
19.6029    0
19.6129    0
19.6229    0
19.6329    0
19.6429    0
19.6529    0
19.6629    0
19.6729    0
19.6829    0
19.6929    0
19.7029    0
19.7129    0
19.7229    0
19.7329    1
19.7429    0
19.7529    0
19.7629    1
19.7729    0
19.7829    0
19.7929    0
19.8029    0
19.8129    0
19.8229    0
19.8329    0
19.8429    0
19.8529    1
19.8629    0
19.8729    1
19.8829    0
19.8929    0
19.9029    0
19.9129    0
19.9229    0
19.9329    0
19.9429    0
19.9529    0
19.9629    0
19.9729    0
19.9829    0
19.9929    1
