Bruker Nano GmbH Berlin, Germany
Esprit 1.9

Date: 11/30/2016 12:04:37 PM
Real time: 147721
Life time: 135651
Pulse density: 12420

Primary energy: 80
Take off angle: 18
Tilt angle: 0
Azimut angle: 45

Detector type: SuperX
Window type: no window
Detector thickness: 0.45
Si dead layer:0.08

Calibration, lin.: 10.001
Calibration, abs.: -469.147
Mn FWHM: 130.925
Fano factor: 0.113
Channels: 2048

Energy Counts
-0.4691     0
-0.4591     0
-0.4491     0
-0.4391     0
-0.4291     0
-0.4191     0
-0.4091     0
-0.3991     0
-0.3891     0
-0.3791     0
-0.3691     0
-0.3591     0
-0.3491     0
-0.3391     0
-0.3291     0
-0.3191     0
-0.3091     0
-0.2991     0
-0.2891     0
-0.2791     0
-0.2691     0
-0.2591     0
-0.2491     0
-0.2391     0
-0.2291     0
-0.2191     0
-0.2091     0
-0.1991     0
-0.1891     0
-0.1791     0
-0.1691     0
-0.1591     0
-0.1491     0
-0.1391     0
-0.1291     0
-0.1191     0
-0.1091     0
-0.0991     1
-0.0891     4
-0.0791    17
-0.0691    51
-0.0591   287
-0.0491   952
-0.0391  2594
-0.0291  5833
-0.0191 10693
-0.0091 15747
 0.0009 19023
 0.0109 19075
 0.0209 15719
 0.0309 10397
 0.0409  5673
 0.0509  2434
 0.0609   927
 0.0709   276
 0.0809    68
 0.0909    18
 0.1009     2
 0.1109     0
 0.1209     5
 0.1309  1128
 0.1409  1364
 0.1509  1135
 0.1609  1021
 0.1709   977
 0.1809   941
 0.1909   949
 0.2009  1091
 0.2109  1250
 0.2209  1593
 0.2309  1999
 0.2409  2653
 0.2509  3198
 0.2609  3775
 0.2709  4136
 0.2809  3975
 0.2909  3332
 0.3009  2692
 0.3109  2043
 0.3209  1383
 0.3309  1000
 0.3409   876
 0.3509   812
 0.3609   833
 0.3709   796
 0.3809   736
 0.3909   833
 0.4009   870
 0.4109   809
 0.4209   771
 0.4309   867
 0.4409   862
 0.4509   894
 0.4609   881
 0.4709   965
 0.4809  1045
 0.4909  1246
  0.501  1444
  0.511  1603
  0.521  1659
  0.531  1683
  0.541  1601
  0.551  1351
  0.561  1223
  0.571  1023
  0.581   875
  0.591   839
  0.601   789
  0.611   783
  0.621   855
  0.631   772
  0.641   799
  0.651   847
  0.661   814
  0.671   819
  0.681   865
  0.691   896
  0.701   860
  0.711   882
  0.721   902
  0.731   880
  0.741   870
  0.751   873
  0.761   859
  0.771   847
  0.781   930
  0.791   873
  0.801   854
  0.811   922
  0.821   968
  0.831   885
  0.841   938
  0.851   994
  0.861   910
  0.871   956
  0.881  1018
  0.891   997
  0.901  1101
  0.911  1176
  0.921  1210
  0.931  1281
  0.941  1290
  0.951  1305
  0.961  1302
  0.971  1280
  0.981  1167
  0.991  1144
  1.001  1154
  1.011  1106
  1.021  1184
  1.031  1212
  1.041  1314
  1.051  1532
  1.061  1786
  1.071  2034
  1.081  2383
  1.091  2774
  1.101  3109
  1.111  3210
  1.121  3177
  1.131  3042
  1.141  2656
  1.151  2322
  1.161  1870
  1.171  1609
  1.181  1365
  1.191  1177
  1.201  1159
  1.211  1056
  1.221  1085
  1.231  1084
  1.241  1106
  1.251  1005
  1.261  1062
  1.271  1108
  1.281  1085
  1.291  1073
  1.301  1065
  1.311  1006
  1.321  1041
  1.331  1008
  1.341   985
  1.351   991
  1.361  1033
  1.371  1012
  1.381  1061
  1.391  1052
  1.401  1017
  1.411  1028
  1.421  1064
  1.431  1033
  1.441  1088
  1.451  1140
  1.461  1096
  1.471  1219
  1.481  1202
  1.491  1243
 1.5011  1320
 1.5111  1272
 1.5211  1370
 1.5311  1412
 1.5411  1508
 1.5511  1788
 1.5611  1903
 1.5711  2131
 1.5811  2392
 1.5911  2627
 1.6011  2691
 1.6111  2743
 1.6211  2740
 1.6311  2891
 1.6411  2943
 1.6511  3613
 1.6611  4527
 1.6711  6598
 1.6811 10049
 1.6911 14964
 1.7011 20966
 1.7111 28371
 1.7211 35690
 1.7311 41550
 1.7411 45659
 1.7511 45721
 1.7611 42643
 1.7711 36852
 1.7811 29608
 1.7911 22315
 1.8011 15820
 1.8111 10958
 1.8211  7583
 1.8311  5493
 1.8411  4152
 1.8511  3337
 1.8611  2901
 1.8711  2470
 1.8811  2086
 1.8911  1943
 1.9011  1722
 1.9111  1598
 1.9211  1736
 1.9311  1777
 1.9411  1930
 1.9511  2306
 1.9611  2678
 1.9711  3318
 1.9811  4414
 1.9911  5784
 2.0011  8037
 2.0111 10304
 2.0211 12991
 2.0311 15933
 2.0411 18425
 2.0511 20086
 2.0611 21396
 2.0711 21239
 2.0811 20703
 2.0911 19461
 2.1011 18435
 2.1111 17085
 2.1211 16217
 2.1311 15119
 2.1411 13453
 2.1511 12210
 2.1611 10170
 2.1711  8373
 2.1811  6453
 2.1911  4732
 2.2011  3434
 2.2111  2457
 2.2211  1712
 2.2311  1335
 2.2411  1016
 2.2511   930
 2.2611   902
 2.2711   991
 2.2811  1020
 2.2911  1110
 2.3011  1205
 2.3111  1314
 2.3211  1445
 2.3311  1508
 2.3411  1519
 2.3511  1451
 2.3611  1342
 2.3711  1217
 2.3811  1119
 2.3911  1003
 2.4011   852
 2.4111   787
 2.4211   675
 2.4311   600
 2.4411   608
 2.4511   587
 2.4611   533
 2.4711   507
 2.4811   553
 2.4911   537
 2.5012   561
 2.5112   567
 2.5212   588
 2.5312   580
 2.5412   553
 2.5512   564
 2.5612   597
 2.5712   599
 2.5812   581
 2.5912   635
 2.6012   606
 2.6112   639
 2.6212   643
 2.6312   684
 2.6412   758
 2.6512   697
 2.6612   780
 2.6712   800
 2.6812   766
 2.6912   747
 2.7012   797
 2.7112   762
 2.7212   747
 2.7312   695
 2.7412   659
 2.7512   668
 2.7612   623
 2.7712   607
 2.7812   620
 2.7912   547
 2.8012   570
 2.8112   518
 2.8212   510
 2.8312   546
 2.8412   481
 2.8512   499
 2.8612   518
 2.8712   498
 2.8812   519
 2.8912   489
 2.9012   469
 2.9112   458
 2.9212   452
 2.9312   509
 2.9412   474
 2.9512   457
 2.9612   473
 2.9712   490
 2.9812   486
 2.9912   472
 3.0012   501
 3.0112   482
 3.0212   459
 3.0312   458
 3.0412   508
 3.0512   503
 3.0612   466
 3.0712   486
 3.0812   490
 3.0912   466
 3.1012   466
 3.1112   503
 3.1212   490
 3.1312   449
 3.1412   486
 3.1512   468
 3.1612   465
 3.1712   487
 3.1812   522
 3.1912   483
 3.2012   483
 3.2112   482
 3.2212   492
 3.2312   490
 3.2412   495
 3.2512   480
 3.2612   508
 3.2712   532
 3.2812   563
 3.2912   456
 3.3012   482
 3.3112   481
 3.3212   468
 3.3312   482
 3.3412   501
 3.3512   472
 3.3612   477
 3.3712   477
 3.3812   470
 3.3912   488
 3.4012   521
 3.4112   514
 3.4212   478
 3.4312   468
 3.4412   522
 3.4512   498
 3.4612   545
 3.4712   499
 3.4812   485
 3.4912   487
 3.5013   491
 3.5113   484
 3.5213   472
 3.5313   465
 3.5413   519
 3.5513   483
 3.5613   459
 3.5713   465
 3.5813   481
 3.5913   471
 3.6013   456
 3.6113   485
 3.6213   450
 3.6313   497
 3.6413   475
 3.6513   473
 3.6613   509
 3.6713   471
 3.6813   498
 3.6913   438
 3.7013   469
 3.7113   500
 3.7213   465
 3.7313   495
 3.7413   474
 3.7513   458
 3.7613   501
 3.7713   453
 3.7813   471
 3.7913   453
 3.8013   442
 3.8113   457
 3.8213   472
 3.8313   446
 3.8413   482
 3.8513   438
 3.8613   444
 3.8713   463
 3.8813   474
 3.8913   471
 3.9013   452
 3.9113   448
 3.9213   435
 3.9313   466
 3.9413   443
 3.9513   449
 3.9613   484
 3.9713   379
 3.9813   467
 3.9913   449
 4.0013   485
 4.0113   467
 4.0213   468
 4.0313   441
 4.0413   426
 4.0513   472
 4.0613   443
 4.0713   420
 4.0813   442
 4.0913   465
 4.1013   414
 4.1113   416
 4.1213   430
 4.1313   459
 4.1413   457
 4.1513   435
 4.1613   500
 4.1713   427
 4.1813   411
 4.1913   421
 4.2013   441
 4.2113   459
 4.2213   433
 4.2313   446
 4.2413   423
 4.2513   480
 4.2613   454
 4.2713   432
 4.2813   442
 4.2913   455
 4.3013   436
 4.3113   422
 4.3213   425
 4.3313   436
 4.3413   455
 4.3513   420
 4.3613   461
 4.3713   424
 4.3813   448
 4.3913   435
 4.4013   428
 4.4113   439
 4.4213   430
 4.4313   441
 4.4413   407
 4.4513   424
 4.4613   418
 4.4713   423
 4.4813   457
 4.4913   379
 4.5014   431
 4.5114   385
 4.5214   461
 4.5314   444
 4.5414   423
 4.5514   422
 4.5614   428
 4.5714   410
 4.5814   418
 4.5914   403
 4.6014   395
 4.6114   431
 4.6214   424
 4.6314   395
 4.6414   428
 4.6514   417
 4.6614   399
 4.6714   385
 4.6814   427
 4.6914   434
 4.7014   415
 4.7114   432
 4.7214   403
 4.7314   401
 4.7414   364
 4.7514   368
 4.7614   405
 4.7714   427
 4.7814   455
 4.7914   393
 4.8014   427
 4.8114   375
 4.8214   430
 4.8314   435
 4.8414   403
 4.8514   433
 4.8614   405
 4.8714   381
 4.8814   432
 4.8914   424
 4.9014   416
 4.9114   399
 4.9214   412
 4.9314   388
 4.9414   377
 4.9514   411
 4.9614   365
 4.9714   412
 4.9814   420
 4.9914   410
 5.0014   425
 5.0114   402
 5.0214   389
 5.0314   406
 5.0414   414
 5.0514   428
 5.0614   393
 5.0714   391
 5.0814   379
 5.0914   390
 5.1014   392
 5.1114   362
 5.1214   387
 5.1314   367
 5.1414   396
 5.1514   403
 5.1614   391
 5.1714   384
 5.1814   381
 5.1914   419
 5.2014   398
 5.2114   383
 5.2214   378
 5.2314   322
 5.2414   376
 5.2514   409
 5.2614   387
 5.2714   380
 5.2814   359
 5.2914   360
 5.3014   386
 5.3114   375
 5.3214   399
 5.3314   397
 5.3414   392
 5.3514   396
 5.3614   396
 5.3714   361
 5.3814   348
 5.3914   413
 5.4014   401
 5.4114   393
 5.4214   408
 5.4314   405
 5.4414   426
 5.4514   397
 5.4614   404
 5.4714   396
 5.4814   401
 5.4914   401
 5.5015   375
 5.5115   374
 5.5215   358
 5.5315   365
 5.5415   378
 5.5515   373
 5.5615   377
 5.5715   350
 5.5815   377
 5.5915   395
 5.6015   390
 5.6115   388
 5.6215   388
 5.6315   360
 5.6415   395
 5.6515   369
 5.6615   311
 5.6715   355
 5.6815   393
 5.6915   381
 5.7015   384
 5.7115   382
 5.7215   364
 5.7315   349
 5.7415   365
 5.7515   372
 5.7615   343
 5.7715   361
 5.7815   375
 5.7915   393
 5.8015   361
 5.8115   360
 5.8215   352
 5.8315   337
 5.8415   404
 5.8515   319
 5.8615   381
 5.8715   402
 5.8815   366
 5.8915   366
 5.9015   339
 5.9115   357
 5.9215   369
 5.9315   362
 5.9415   354
 5.9515   353
 5.9615   348
 5.9715   366
 5.9815   330
 5.9915   345
 6.0015   332
 6.0115   313
 6.0215   344
 6.0315   369
 6.0415   345
 6.0515   370
 6.0615   365
 6.0715   373
 6.0815   328
 6.0915   369
 6.1015   383
 6.1115   382
 6.1215   364
 6.1315   391
 6.1415   367
 6.1515   324
 6.1615   390
 6.1715   350
 6.1815   364
 6.1915   335
 6.2015   337
 6.2115   359
 6.2215   380
 6.2315   336
 6.2415   334
 6.2515   359
 6.2615   385
 6.2715   372
 6.2815   401
 6.2915   429
 6.3015   442
 6.3115   434
 6.3215   435
 6.3315   503
 6.3415   530
 6.3515   561
 6.3615   577
 6.3715   587
 6.3815   605
 6.3915   662
 6.4015   679
 6.4115   687
 6.4215   651
 6.4315   576
 6.4415   602
 6.4515   569
 6.4615   551
 6.4715   487
 6.4815   442
 6.4915   450
 6.5016   390
 6.5116   375
 6.5216   387
 6.5316   355
 6.5416   374
 6.5516   360
 6.5616   331
 6.5716   319
 6.5816   329
 6.5916   335
 6.6016   332
 6.6116   372
 6.6216   305
 6.6316   305
 6.6416   351
 6.6516   308
 6.6616   358
 6.6716   321
 6.6816   317
 6.6916   334
 6.7016   348
 6.7116   363
 6.7216   349
 6.7316   314
 6.7416   349
 6.7516   328
 6.7616   358
 6.7716   319
 6.7816   349
 6.7916   324
 6.8016   350
 6.8116   320
 6.8216   328
 6.8316   339
 6.8416   425
 6.8516   413
 6.8616   447
 6.8716   442
 6.8816   477
 6.8916   513
 6.9016   505
 6.9116   493
 6.9216   510
 6.9316   551
 6.9416   559
 6.9516   485
 6.9616   508
 6.9716   518
 6.9816   499
 6.9916   466
 7.0016   462
 7.0116   418
 7.0216   383
 7.0316   420
 7.0416   396
 7.0516   346
 7.0616   381
 7.0716   364
 7.0816   397
 7.0916   344
 7.1016   385
 7.1116   360
 7.1216   323
 7.1316   338
 7.1416   335
 7.1516   324
 7.1616   328
 7.1716   303
 7.1816   316
 7.1916   336
 7.2016   333
 7.2116   320
 7.2216   286
 7.2316   316
 7.2416   300
 7.2516   314
 7.2616   290
 7.2716   300
 7.2816   298
 7.2916   323
 7.3016   298
 7.3116   273
 7.3216   287
 7.3316   312
 7.3416   318
 7.3516   319
 7.3616   353
 7.3716   350
 7.3816   311
 7.3916   304
 7.4016   308
 7.4116   310
 7.4216   353
 7.4316   359
 7.4416   315
 7.4516   315
 7.4616   356
 7.4716   348
 7.4816   346
 7.4916   300
 7.5017   322
 7.5117   285
 7.5217   320
 7.5317   312
 7.5417   337
 7.5517   312
 7.5617   294
 7.5717   301
 7.5817   330
 7.5917   297
 7.6017   319
 7.6117   309
 7.6217   330
 7.6317   358
 7.6417   326
 7.6517   344
 7.6617   280
 7.6717   304
 7.6817   333
 7.6917   341
 7.7017   298
 7.7117   322
 7.7217   322
 7.7317   341
 7.7417   293
 7.7517   349
 7.7617   306
 7.7717   335
 7.7817   299
 7.7917   318
 7.8017   344
 7.8117   315
 7.8217   290
 7.8317   357
 7.8417   324
 7.8517   359
 7.8617   360
 7.8717   381
 7.8817   381
 7.8917   409
 7.9017   468
 7.9117   546
 7.9217   560
 7.9317   649
 7.9417   693
 7.9517   818
 7.9617   908
 7.9717  1007
 7.9817  1156
 7.9917  1256
 8.0017  1434
 8.0117  1478
 8.0217  1483
 8.0317  1522
 8.0417  1574
 8.0517  1573
 8.0617  1504
 8.0717  1362
 8.0817  1288
 8.0917  1195
 8.1017  1091
 8.1117  1014
 8.1217   924
 8.1317   761
 8.1417   725
 8.1517   649
 8.1617   587
 8.1717   611
 8.1817   569
 8.1917   601
 8.2017   574
 8.2117   618
 8.2217   631
 8.2317   664
 8.2417   658
 8.2517   675
 8.2617   631
 8.2717   648
 8.2817   677
 8.2917   650
 8.3017   591
 8.3117   556
 8.3217   563
 8.3317   510
 8.3417   457
 8.3517   459
 8.3617   388
 8.3717   368
 8.3817   372
 8.3917   368
 8.4017   357
 8.4117   332
 8.4217   355
 8.4317   294
 8.4417   296
 8.4517   286
 8.4617   287
 8.4717   327
 8.4817   296
 8.4917   288
 8.5018   251
 8.5118   270
 8.5218   301
 8.5318   304
 8.5418   273
 8.5518   263
 8.5618   285
 8.5718   291
 8.5818   317
 8.5918   266
 8.6018   299
 8.6118   258
 8.6218   275
 8.6318   296
 8.6418   286
 8.6518   283
 8.6618   298
 8.6718   264
 8.6818   324
 8.6918   286
 8.7018   313
 8.7118   282
 8.7218   289
 8.7318   299
 8.7418   305
 8.7518   272
 8.7618   284
 8.7718   301
 8.7818   324
 8.7918   334
 8.8018   346
 8.8118   356
 8.8218   383
 8.8318   422
 8.8418   405
 8.8518   408
 8.8618   423
 8.8718   462
 8.8818   453
 8.8918   468
 8.9018   464
 8.9118   502
 8.9218   453
 8.9318   439
 8.9418   441
 8.9518   416
 8.9618   395
 8.9718   436
 8.9818   383
 8.9918   362
 9.0018   371
 9.0118   351
 9.0218   356
 9.0318   346
 9.0418   357
 9.0518   396
 9.0618   390
 9.0718   412
 9.0818   421
 9.0918   472
 9.1018   539
 9.1118   569
 9.1218   645
 9.1318   712
 9.1418   825
 9.1518   860
 9.1618  1028
 9.1718  1179
 9.1818  1296
 9.1918  1443
 9.2018  1468
 9.2118  1633
 9.2218  1700
 9.2318  1780
 9.2418  1836
 9.2518  2022
 9.2618  2065
 9.2718  2116
 9.2818  2358
 9.2918  2359
 9.3018  2543
 9.3118  2765
 9.3218  3069
 9.3318  3484
 9.3418  3838
 9.3518  4262
 9.3618  4696
 9.3718  5211
 9.3818  5457
 9.3918  6066
 9.4018  6482
 9.4118  6571
 9.4218  6723
 9.4318  6879
 9.4418  6864
 9.4518  6588
 9.4618  6321
 9.4718  5849
 9.4818  5336
 9.4918  5041
 9.5019  4365
 9.5119  3801
 9.5219  3321
 9.5319  2745
 9.5419  2263
 9.5519  1978
 9.5619  1579
 9.5719  1214
 9.5819  1048
 9.5919   801
 9.6019   695
 9.6119   557
 9.6219   508
 9.6319   422
 9.6419   327
 9.6519   340
 9.6619   303
 9.6719   286
 9.6819   271
 9.6919   303
 9.7019   268
 9.7119   247
 9.7219   258
 9.7319   256
 9.7419   270
 9.7519   252
 9.7619   274
 9.7719   236
 9.7819   231
 9.7919   273
 9.8019   260
 9.8119   267
 9.8219   261
 9.8319   277
 9.8419   263
 9.8519   290
 9.8619   265
 9.8719   301
 9.8819   271
 9.8919   282
 9.9019   296
 9.9119   311
 9.9219   318
 9.9319   292
 9.9419   307
 9.9519   322
 9.9619   294
 9.9719   301
 9.9819   282
 9.9919   323
10.0019   328
10.0119   276
10.0219   274
10.0319   273
10.0419   304
10.0519   296
10.0619   244
10.0719   261
10.0819   237
10.0919   236
10.1019   254
10.1119   249
10.1219   294
10.1319   261
10.1419   269
10.1519   303
10.1619   319
10.1719   322
10.1819   332
10.1919   326
10.2019   329
10.2119   346
10.2219   330
10.2319   383
10.2419   359
10.2519   382
10.2619   358
10.2719   353
10.2819   374
10.2919   358
10.3019   342
10.3119   348
10.3219   334
10.3319   292
10.3419   312
10.3519   277
10.3619   279
10.3719   289
10.3819   266
10.3919   268
10.4019   255
10.4119   262
10.4219   236
10.4319   251
10.4419   258
10.4519   233
10.4619   243
10.4719   228
10.4819   249
10.4919   210
 10.502   256
 10.512   240
 10.522   235
 10.532   286
 10.542   269
 10.552   246
 10.562   255
 10.572   267
 10.582   249
 10.592   276
 10.602   270
 10.612   275
 10.622   252
 10.632   250
 10.642   278
 10.652   253
 10.662   281
 10.672   294
 10.682   290
 10.692   308
 10.702   334
 10.712   323
 10.722   370
 10.732   397
 10.742   365
 10.752   446
 10.762   481
 10.772   476
 10.782   533
 10.792   538
 10.802   635
 10.812   563
 10.822   589
 10.832   659
 10.842   634
 10.852   686
 10.862   668
 10.872   692
 10.882   733
 10.892   758
 10.902   834
 10.912   856
 10.922   900
 10.932  1022
 10.942  1172
 10.952  1211
 10.962  1361
 10.972  1541
 10.982  1736
 10.992  1930
 11.002  1942
 11.012  2228
 11.022  2482
 11.032  2503
 11.042  2620
 11.052  2718
 11.062  2777
 11.072  2777
 11.082  2793
 11.092  2699
 11.102  2548
 11.112  2511
 11.122  2448
 11.132  2296
 11.142  2259
 11.152  2116
 11.162  2050
 11.172  1996
 11.182  1857
 11.192  1866
 11.202  1872
 11.212  1829
 11.222  1797
 11.232  1729
 11.242  1725
 11.252  1616
 11.262  1660
 11.272  1539
 11.282  1444
 11.292  1326
 11.302  1224
 11.312  1046
 11.322  1018
 11.332   851
 11.342   799
 11.352   705
 11.362   605
 11.372   514
 11.382   457
 11.392   413
 11.402   393
 11.412   332
 11.422   299
 11.432   346
 11.442   287
 11.452   294
 11.462   284
 11.472   266
 11.482   261
 11.492   280
11.5021   290
11.5121   310
11.5221   301
11.5321   271
11.5421   288
11.5521   281
11.5621   265
11.5721   271
11.5821   299
11.5921   255
11.6021   249
11.6121   254
11.6221   257
11.6321   249
11.6421   270
11.6521   259
11.6621   231
11.6721   249
11.6821   190
11.6921   202
11.7021   210
11.7121   210
11.7221   183
11.7321   186
11.7421   195
11.7521   201
11.7621   186
11.7721   193
11.7821   198
11.7921   200
11.8021   195
11.8121   173
11.8221   177
11.8321   197
11.8421   189
11.8521   183
11.8621   181
11.8721   186
11.8821   168
11.8921   147
11.9021   155
11.9121   163
11.9221   163
11.9321   140
11.9421   164
11.9521   187
11.9621   155
11.9721   167
11.9821   146
11.9921   169
12.0021   164
12.0121   152
12.0221   162
12.0321   154
12.0421   148
12.0521   172
12.0621   167
12.0721   172
12.0821   157
12.0921   169
12.1021   179
12.1121   151
12.1221   167
12.1321   180
12.1421   163
12.1521   163
12.1621   168
12.1721   163
12.1821   162
12.1921   150
12.2021   169
12.2121   142
12.2221   192
12.2321   149
12.2421   177
12.2521   171
12.2621   174
12.2721   165
12.2821   150
12.2921   166
12.3021   166
12.3121   165
12.3221   175
12.3321   187
12.3421   158
12.3521   144
12.3621   156
12.3721   162
12.3821   183
12.3921   143
12.4021   144
12.4121   163
12.4221   160
12.4321   161
12.4421   181
12.4521   187
12.4621   179
12.4721   186
12.4821   174
12.4921   183
12.5022   195
12.5122   179
12.5222   192
12.5322   216
12.5422   190
12.5522   217
12.5622   202
12.5722   189
12.5822   230
12.5922   199
12.6022   201
12.6122   169
12.6222   210
12.6322   210
12.6422   187
12.6522   209
12.6622   200
12.6722   182
12.6822   193
12.6922   193
12.7022   181
12.7122   191
12.7222   165
12.7322   191
12.7422   200
12.7522   208
12.7622   226
12.7722   227
12.7822   255
12.7922   272
12.8022   275
12.8122   291
12.8222   348
12.8322   342
12.8422   379
12.8522   370
12.8622   428
12.8722   439
12.8822   498
12.8922   486
12.9022   541
12.9122   529
12.9222   492
12.9322   554
12.9422   537
12.9522   568
12.9622   518
12.9722   463
12.9822   455
12.9922   409
13.0022   390
13.0122   398
13.0222   344
13.0322   324
13.0422   282
13.0522   263
13.0622   259
13.0722   228
13.0822   223
13.0922   204
13.1022   179
13.1122   154
13.1222   204
13.1322   192
13.1422   184
13.1522   188
13.1622   218
13.1722   183
13.1822   213
13.1922   196
13.2022   210
13.2122   217
13.2222   232
13.2322   227
13.2422   251
13.2522   268
13.2622   261
13.2722   238
13.2822   253
13.2922   259
13.3022   278
13.3122   236
13.3222   243
13.3322   237
13.3422   239
13.3522   222
13.3622   249
13.3722   218
13.3822   202
13.3922   238
13.4022   185
13.4122   172
13.4222   160
13.4322   156
13.4422   168
13.4522   140
13.4622   159
13.4722   132
13.4822   149
13.4922   146
13.5023   129
13.5123   148
13.5223   119
13.5323   135
13.5423   144
13.5523   157
13.5623   149
13.5723   118
13.5823   110
13.5923   130
13.6023   127
13.6123   137
13.6223   126
13.6323   125
13.6423   125
13.6523   134
13.6623   120
13.6723   135
13.6823   137
13.6923   122
13.7023   120
13.7123   129
13.7223   128
13.7323   132
13.7423    98
13.7523   141
13.7623   151
13.7723   150
13.7823   141
13.7923   147
13.8023   135
13.8123   143
13.8223   145
13.8323   113
13.8423   133
13.8523   124
13.8623   103
13.8723   130
13.8823   118
13.8923   134
13.9023   115
13.9123   111
13.9223   115
13.9323   141
13.9423   121
13.9523   120
13.9623   118
13.9723    97
13.9823   128
13.9923   117
14.0023    97
14.0123    92
14.0223   106
14.0323   112
14.0423   122
14.0523   132
14.0623   105
14.0723   122
14.0823   116
14.0923   126
14.1023   107
14.1123   100
14.1223   103
14.1323   108
14.1423   109
14.1523    97
14.1623   104
14.1723   120
14.1823   117
14.1923    91
14.2023   128
14.2123    96
14.2223   104
14.2323   130
14.2423   100
14.2523   107
14.2623   110
14.2723   112
14.2823   117
14.2923    99
14.3023   112
14.3123   115
14.3223    93
14.3323   113
14.3423    99
14.3523   104
14.3623    91
14.3723   122
14.3823   112
14.3923   101
14.4023   108
14.4123    99
14.4223   105
14.4323   103
14.4423   101
14.4523    80
14.4623   106
14.4723    99
14.4823    99
14.4923   114
14.5024   113
14.5124   110
14.5224   112
14.5324   103
14.5424   114
14.5524   109
14.5624    95
14.5724   102
14.5824   117
14.5924   111
14.6024   116
14.6124   117
14.6224    97
14.6324   107
14.6424   101
14.6524   106
14.6624   112
14.6724   113
14.6824   113
14.6924    90
14.7024    92
14.7124   120
14.7224   103
14.7324    83
14.7424   101
14.7524   107
14.7624    99
14.7724    93
14.7824   105
14.7924   112
14.8024    89
14.8124    97
14.8224   103
14.8324    99
14.8424   104
14.8524    83
14.8624   100
14.8724    98
14.8824   115
14.8924   104
14.9024    95
14.9124    95
14.9224   102
14.9324   101
14.9424   104
14.9524   103
14.9624    88
14.9724    88
14.9824    94
14.9924    99
15.0024   106
15.0124    81
15.0224    84
15.0324    99
15.0424    77
15.0524    99
15.0624    93
15.0724    91
15.0824   106
15.0924   104
15.1024    92
15.1124    85
15.1224   107
15.1324   104
15.1424    80
15.1524    90
15.1624    91
15.1724    92
15.1824   111
15.1924    84
15.2024   102
15.2124   104
15.2224   109
15.2324    87
15.2424    97
15.2524    87
15.2624    96
15.2724    93
15.2824    98
15.2924    94
15.3024    93
15.3124    89
15.3224    97
15.3324    78
15.3424    85
15.3524    77
15.3624    96
15.3724    76
15.3824    89
15.3924    99
15.4024    88
15.4124    87
15.4224    80
15.4324    92
15.4424    81
15.4524    98
15.4624    92
15.4724    81
15.4824    90
15.4924   103
15.5025    97
15.5125    80
15.5225    91
15.5325   103
15.5425   103
15.5525   102
15.5625   101
15.5725   102
15.5825   104
15.5925   106
15.6025   103
15.6125    97
15.6225   116
15.6325   144
15.6425   120
15.6525   156
15.6625   121
15.6725   137
15.6825   130
15.6925   131
15.7025   139
15.7125   146
15.7225   139
15.7325   136
15.7425   146
15.7525   130
15.7625   131
15.7725   132
15.7825   118
15.7925   134
15.8025   122
15.8125   133
15.8225   114
15.8325   104
15.8425   125
15.8525    99
15.8625   105
15.8725    92
15.8825   104
15.8925    95
15.9025    95
15.9125    93
15.9225    90
15.9325    81
15.9425    86
15.9525    89
15.9625    94
15.9725    78
15.9825    90
15.9925   103
16.0025    83
16.0125    85
16.0225    78
16.0325    72
16.0425    72
16.0525    61
16.0625    89
16.0725    76
16.0825    82
16.0925    71
16.1025    76
16.1125    88
16.1225    71
16.1325    83
16.1425    91
16.1525    91
16.1625    73
16.1725    74
16.1825    72
16.1925    73
16.2025    60
16.2125    84
16.2225    89
16.2325    82
16.2425    84
16.2525    69
16.2625    70
16.2725    85
16.2825    62
16.2925    91
16.3025    78
16.3125    79
16.3225    86
16.3325    73
16.3425    76
16.3525    82
16.3625    59
16.3725    65
16.3825    67
16.3925    77
16.4025    82
16.4125    78
16.4225    65
16.4325    53
16.4425    63
16.4525    76
16.4625    70
16.4725    71
16.4825    72
16.4925    61
16.5026    80
16.5126    67
16.5226    83
16.5326    76
16.5426    64
16.5526    80
16.5626    66
16.5726    62
16.5826    66
16.5926    65
16.6026    73
16.6126    75
16.6226    71
16.6326    83
16.6426    77
16.6526    61
16.6626    70
16.6726    57
16.6826    67
16.6926    70
16.7026    70
16.7126    68
16.7226    90
16.7326    57
16.7426    79
16.7526    53
16.7626    68
16.7726    79
16.7826    67
16.7926    59
16.8026    52
16.8126    58
16.8226    64
16.8326    61
16.8426    65
16.8526    67
16.8626    60
16.8726    57
16.8826    59
16.8926    65
16.9026    54
16.9126    63
16.9226    50
16.9326    74
16.9426    74
16.9526    78
16.9626    87
16.9726    54
16.9826    62
16.9926    74
17.0026    67
17.0126    70
17.0226    77
17.0326    59
17.0426    75
17.0526    79
17.0626    63
17.0726    66
17.0826    68
17.0926    58
17.1026    60
17.1126    60
17.1226    60
17.1326    55
17.1426    67
17.1526    69
17.1626    58
17.1726    59
17.1826    62
17.1926    71
17.2026    68
17.2126    56
17.2226    81
17.2326    68
17.2426    57
17.2526    71
17.2626    56
17.2726    77
17.2826    81
17.2926    57
17.3026    63
17.3126    65
17.3226    58
17.3326    59
17.3426    58
17.3526    69
17.3626    80
17.3726    52
17.3826    52
17.3926    66
17.4026    61
17.4126    69
17.4226    64
17.4326    72
17.4426    65
17.4526    58
17.4626    71
17.4726    76
17.4826    64
17.4926    66
17.5027    63
17.5127    70
17.5227    61
17.5327    55
17.5427    67
17.5527    64
17.5627    58
17.5727    67
17.5827    53
17.5927    78
17.6027    69
17.6127    64
17.6227    61
17.6327    76
17.6427    71
17.6527    72
17.6627    65
17.6727    68
17.6827    69
17.6927    73
17.7027    66
17.7127    63
17.7227    60
17.7327    62
17.7427    67
17.7527    66
17.7627    63
17.7727    55
17.7827    53
17.7927    61
17.8027    57
17.8127    65
17.8227    49
17.8327    71
17.8427    56
17.8527    57
17.8627    46
17.8727    53
17.8827    55
17.8927    63
17.9027    73
17.9127    48
17.9227    54
17.9327    56
17.9427    49
17.9527    57
17.9627    53
17.9727    55
17.9827    40
17.9927    61
18.0027    64
18.0127    62
18.0227    52
18.0327    44
18.0427    46
18.0527    53
18.0627    57
18.0727    52
18.0827    49
18.0927    43
18.1027    48
18.1127    46
18.1227    56
18.1327    48
18.1427    44
18.1527    60
18.1627    48
18.1727    46
18.1827    75
18.1927    54
18.2027    51
18.2127    57
18.2227    55
18.2327    48
18.2427    55
18.2527    42
18.2627    61
18.2727    64
18.2827    63
18.2927    63
18.3027    50
18.3127    49
18.3227    49
18.3327    46
18.3427    49
18.3527    50
18.3627    40
18.3727    68
18.3827    47
18.3927    53
18.4027    63
18.4127    51
18.4227    47
18.4327    45
18.4427    51
18.4527    51
18.4627    56
18.4727    43
18.4827    46
18.4927    55
18.5028    55
18.5128    66
18.5228    52
18.5328    56
18.5428    47
18.5528    63
18.5628    44
18.5728    63
18.5828    44
18.5928    42
18.6028    52
18.6128    64
18.6228    38
18.6328    57
18.6428    49
18.6528    34
18.6628    46
18.6728    49
18.6828    40
18.6928    53
18.7028    35
18.7128    40
18.7228    44
18.7328    39
18.7428    42
18.7528    54
18.7628    46
18.7728    42
18.7828    48
18.7928    50
18.8028    37
18.8128    42
18.8228    43
18.8328    46
18.8428    31
18.8528    50
18.8628    45
18.8728    46
18.8828    46
18.8928    45
18.9028    50
18.9128    57
18.9228    37
18.9328    45
18.9428    47
18.9528    46
18.9628    55
18.9728    48
18.9828    55
18.9928    39
19.0028    47
19.0128    39
19.0228    51
19.0328    41
19.0428    39
19.0528    57
19.0628    40
19.0728    46
19.0828    53
19.0928    45
19.1028    53
19.1128    54
19.1228    43
19.1328    51
19.1428    48
19.1528    39
19.1628    45
19.1728    37
19.1828    56
19.1928    43
19.2028    56
19.2128    51
19.2228    50
19.2328    58
19.2428    49
19.2528    49
19.2628    58
19.2728    44
19.2828    53
19.2928    43
19.3028    46
19.3128    59
19.3228    47
19.3328    26
19.3428    39
19.3528    33
19.3628    40
19.3728    45
19.3828    48
19.3928    43
19.4028    40
19.4128    41
19.4228    50
19.4328    38
19.4428    38
19.4528    27
19.4628    44
19.4728    41
19.4828    37
19.4928    38
19.5029    37
19.5129    36
19.5229    36
19.5329    40
19.5429    44
19.5529    35
19.5629    35
19.5729    51
19.5829    43
19.5929    34
19.6029    37
19.6129    52
19.6229    39
19.6329    41
19.6429    48
19.6529    39
19.6629    42
19.6729    39
19.6829    39
19.6929    55
19.7029    40
19.7129    33
19.7229    30
19.7329    28
19.7429    33
19.7529    21
19.7629    30
19.7729    47
19.7829    48
19.7929    43
19.8029    40
19.8129    42
19.8229    43
19.8329    37
19.8429    49
19.8529    46
19.8629    40
19.8729    41
19.8829    30
19.8929    33
19.9029    38
19.9129    34
19.9229    44
19.9329    36
19.9429    43
19.9529    39
19.9629    39
19.9729    35
19.9829    26
19.9929    33
20.0029    39
